# number of annotations: 3390
# number of IDs: 27
# %sparse: 19.57

# the sum and mean counts per row
                  sum     mean
2.7.11.1    551358.96 20420.70
2.7.13.3    427147.47 15820.28
1.6.5.3     412084.65 15262.39
2.7.7.7     331468.89 12276.63
3.6.4.12    325046.98 12038.78
3.4.16.4    191797.04  7103.59
3.2.1.21    175923.62  6515.69
3.2.1.23    158207.24  5859.53
2.7.7.6     141461.25  5239.31
6.2.1.3     128431.15  4756.71
3.2.1.4     128204.35  4748.31
5.2.1.8     125756.49  4657.65
2.1.1.72    116647.70  4320.29
1.9.3.1     110039.04  4075.52
2.7.7.49    109000.49  4037.06
2.1.1.80     98579.26  3651.08
3.6.3.12     98365.16  3643.15
3.1.3.3      97196.51  3599.87
5.99.1.3     94419.96  3497.04
3.1.1.61     93455.90  3461.33
3.1.21.3     92557.20  3428.04
1.4.1.13     90657.52  3357.69
1.4.1.14     90657.52  3357.69
2.2.1.6      89166.06  3302.45
5.1.3.2      85468.37  3165.50
1.1.1.100    84097.47  3114.72
3.4.21.53    83125.49  3078.72
3.2.1.51     83123.94  3078.66
6.3.5.4      82735.37  3064.27
2.4.1.129    81270.64  3010.02
6.3.5.7      80956.51  2998.39
1.8.98.5     79943.31  2960.86
2.4.1.1      76885.01  2847.59
6.3.5.6      76664.08  2839.41
2.2.1.1      76503.29  2833.46
6.3.5.5      75892.89  2810.85
1.1.1.1      73800.42  2733.35
4.6.1.1      73621.90  2726.74
3.4.21.107   73205.05  2711.30
1.2.5.3      72911.38  2700.42
1.2.7.3      72175.77  2673.18
3.2.1.22     71001.44  2629.68
3.6.3.14     70256.49  2602.09
3.6.3.6      69928.25  2589.94
1.2.7.1      69336.20  2568.01
1.2.4.1      69238.67  2564.40
2.1.1.13     68886.29  2551.34
3.6.4.13     66752.73  2472.32
5.99.1.2     66595.81  2466.51
1.8.1.9      66150.01  2450.00
1.2.7.11     65287.37  2418.05
1.8.7.3      64693.09  2396.04
3.4.21.102   64149.88  2375.92
1.8.98.6     64004.09  2370.52
3.6.3.54     63367.02  2346.93
3.2.1.20     62393.17  2310.86
6.2.1.1      61555.55  2279.84
1.8.98.4     60757.14  2250.26
3.2.1.52     60315.12  2233.89
1.17.4.1     60294.33  2233.12
6.5.1.1      59945.63  2220.21
6.1.1.20     59581.06  2206.71
1.17.1.9     59266.91  2195.07
1.17.1.4     59091.18  2188.56
3.2.1.177    57996.44  2148.02
2.3.1.9      57900.11  2144.45
3.2.1.55     57644.31  2134.97
2.8.1.7      57327.97  2123.26
6.4.1.2      56169.06  2080.34
6.3.5.3      56165.65  2080.21
6.1.1.5      55499.88  2055.55
6.3.1.2      55217.47  2045.09
2.6.1.16     53799.70  1992.58
6.1.1.7      53371.89  1976.74
2.2.1.2      52540.59  1945.95
1.2.1.3      52456.10  1942.82
3.6.1.1      52083.44  1929.02
3.1.4.3      51479.92  1906.66
1.1.1.363    50444.37  1868.31
1.1.1.49     50444.37  1868.31
2.7.9.1      49800.23  1844.45
3.5.1.28     49657.95  1839.18
1.3.99.16    49134.39  1819.79
1.3.5.4      48938.90  1812.55
4.2.1.33     48644.56  1801.65
4.2.1.35     48559.75  1798.51
1.1.1.399    48350.07  1790.74
1.1.1.95     48350.07  1790.74
2.3.3.13     48053.31  1779.75
3.6.3.17     47961.26  1776.34
3.2.1.1      47687.64  1766.21
6.1.1.9      47402.24  1755.64
5.3.1.9      47395.25  1755.38
1.10.3.14    46926.13  1738.00
6.1.1.4      46811.84  1733.77
2.1.3.15     46635.77  1727.25
2.4.1.20     46378.49  1717.72
3.6.1.27     46074.14  1706.45
5.4.99.2     45874.36  1699.05
3.4.11.2     45745.42  1694.27
2.7.4.1      45633.01  1690.11
4.2.1.3      45631.80  1690.07
1.3.5.1      45218.44  1674.76
2.7.6.5      44789.52  1658.87
4.2.1.20     44752.94  1657.52
3.5.1.4      44379.56  1643.69
2.7.9.2      44364.91  1643.14
1.3.8.7      44087.76  1632.88
4.1.2.9      43876.76  1625.07
4.1.2.22     43876.76  1625.07
3.4.19.13    43671.30  1617.46
2.3.2.2      43671.30  1617.46
2.7.1.11     43641.94  1616.37
3.1.11.5     43006.48  1592.83
4.1.3.27     42971.99  1591.56
4.2.1.46     42843.22  1586.79
6.1.1.14     42437.23  1571.75
3.4.11.9     42299.82  1566.66
1.4.4.2      42195.61  1562.80
2.7.7.13     42129.85  1560.36
4.2.99.18    41986.04  1555.04
2.7.1.2      41966.51  1554.32
1.2.4.4      41955.69  1553.91
1.8.1.4      41040.51  1520.02
2.3.1.179    40473.53  1499.02
3.4.21.26    40251.44  1490.79
4.2.3.1      40031.60  1482.65
3.4.21.89    40020.61  1482.24
2.7.2.4      39615.63  1467.25
6.2.1.30     39372.38  1458.24
2.6.1.1      39365.16  1457.97
3.6.3.2      39304.10  1455.71
4.2.1.17     39161.68  1450.43
4.1.1.37     38985.76  1443.92
5.4.3.8      38980.64  1443.73
2.4.1.18     38907.79  1441.03
1.6.5.5      37988.77  1406.99
2.5.1.47     37951.41  1405.61
4.1.2.13     37459.17  1387.38
3.2.1.24     37254.94  1379.81
4.2.1.9      37231.39  1378.94
1.1.1.22     37190.11  1377.41
5.4.2.8      37043.31  1371.97
2.6.1.9      37037.50  1371.76
2.7.7.8      36684.95  1358.70
5.4.2.2      36680.88  1358.55
2.3.1.51     36612.12  1356.00
1.1.1.35     36521.57  1352.65
6.1.1.17     36449.22  1349.97
3.1.1.45     35788.88  1325.51
4.2.1.2      35501.96  1314.89
2.7.7.65     35420.47  1311.87
1.1.5.3      35416.05  1311.71
2.5.1.16     35353.89  1309.40
2.5.1.54     35275.90  1306.51
3.1.3.16     35201.47  1303.76
2.4.1.25     35115.27  1300.57
6.1.1.10     34975.41  1295.39
1.11.1.15    34961.32  1294.86
6.1.1.6      34882.32  1291.94
6.3.2.4      34867.44  1291.39
6.4.1.3      34850.82  1290.77
3.2.1.40     34850.55  1290.76
6.5.1.2      34832.52  1290.09
6.1.1.16     34663.45  1283.83
2.7.1.90     34613.78  1281.99
2.3.1.12     34511.18  1278.19
1.12.1.3     34501.25  1277.82
2.7.7.4      34390.43  1273.72
1.6.99.3     34246.42  1268.39
1.6.1.2      34187.06  1266.19
6.3.4.13     34100.58  1262.98
3.2.1.3      34088.09  1262.52
3.2.1.68     33883.39  1254.94
6.1.1.3      33867.15  1254.34
3.4.14.5     33792.88  1251.59
1.2.1.79     33762.04  1250.45
1.2.1.16     33762.04  1250.45
1.2.1.20     33762.04  1250.45
3.5.2.14     33761.93  1250.44
2.7.1.17     33229.63  1230.73
1.2.1.8      33208.08  1229.93
6.1.1.19     33068.33  1224.75
3.5.2.3      32916.19  1219.12
1.1.1.3      32867.31  1217.31
2.1.1.14     32861.17  1217.08
1.5.1.20     32709.03  1211.45
2.3.1.15     32377.33  1199.16
1.12.99.6    32354.75  1198.32
2.6.1.42     32325.72  1197.25
6.2.1.5      32316.52  1196.91
1.1.1.14     32136.42  1190.24
4.3.3.7      32062.38  1187.50
6.3.5.2      32025.60  1186.13
3.2.2.21     31990.41  1184.83
6.3.4.14     31926.82  1182.47
1.97.1.4     31892.49  1181.20
3.2.1.8      31701.78  1174.14
1.3.8.1      31696.20  1173.93
2.3.3.1      31435.51  1164.28
3.6.3.8      31241.56  1157.09
2.4.1.83     31218.80  1156.25
1.1.2.8      31156.24  1153.93
4.2.1.11     31105.39  1152.05
3.2.1.37     30971.75  1147.10
2.7.2.1      30882.96  1143.81
6.1.1.15     30789.65  1140.36
5.3.1.8      30684.06  1136.45
1.1.1.85     30588.33  1132.90
4.3.1.19     30533.47  1130.87
1.2.7.8      30460.57  1128.17
3.4.17.21    30201.43  1118.57
1.2.4.2      30196.60  1118.39
6.1.1.12     29899.96  1107.41
2.7.7.59     29888.83  1106.99
3.5.1.44     29691.76  1099.69
2.4.1.321    29298.11  1085.12
4.1.1.20     29170.33  1080.38
6.3.4.2      29053.60  1076.06
3.1.26.4     28864.23  1069.05
3.1.21.5     28781.39  1065.98
1.1.1.343    28668.15  1061.78
1.1.1.44     28668.15  1061.78
1.2.1.88     28351.59  1050.06
2.1.2.10     28218.32  1045.12
2.7.1.40     28071.71  1039.69
2.6.1.19     28059.96  1039.26
2.7.7.80     27907.60  1033.61
3.4.24.71    27886.81  1032.84
2.6.1.17     27825.19  1030.56
2.5.1.48     27481.67  1017.84
5.1.3.14     27463.56  1017.17
1.2.7.5      27324.59  1012.02
2.10.1.1     27207.39  1007.68
2.1.2.1      27152.68  1005.65
2.3.1.180    27028.61  1001.06
5.4.2.12     26828.53   993.65
3.6.1.11     26814.51   993.13
3.6.1.40     26780.92   991.89
3.1.11.6     26762.39   991.20
2.1.1.79     26743.98   990.52
3.5.4.10     26591.67   984.88
1.12.1.2     26512.61   981.95
3.1.3.5      26429.29   978.86
2.1.2.3      26387.46   977.31
2.5.1.49     26358.37   976.24
3.2.1.45     26317.03   974.70
2.4.2.14     26306.34   974.31
3.2.1.14     26266.26   972.82
1.1.1.136    26235.99   971.70
2.7.7.19     26186.37   969.87
2.2.1.7      26072.57   965.65
6.3.2.10     25993.77   962.73
1.1.3.15     25955.64   961.32
3.1.1.31     25917.29   959.90
1.1.1.205    25847.41   957.31
6.3.2.13     25513.65   944.95
2.7.7.23     25369.13   939.60
4.2.1.129    25257.39   935.46
5.4.99.17    25257.39   935.46
1.1.5.2      25222.46   934.17
4.4.1.8      25075.25   928.71
3.4.11.1     25062.14   928.23
5.3.1.12     24945.29   923.90
6.3.5.1      24920.68   922.99
3.2.1.25     24912.01   922.67
4.1.1.19     24907.24   922.49
3.5.1.11     24854.18   920.53
1.2.1.11     24853.95   920.52
5.4.99.23    24825.83   919.48
1.8.4.11     24711.29   915.23
4.2.1.136    24563.40   909.76
1.1.1.31     24537.56   908.80
6.3.4.4      24453.04   905.67
2.3.1.1      24450.91   905.59
4.3.2.2      24409.54   904.06
4.3.2.1      24373.95   902.74
3.3.1.1      24267.15   898.78
5.4.99.16    24157.64   894.73
3.2.1.18     24136.97   893.96
2.1.1.63     24110.96   893.00
5.1.1.1      24101.48   892.65
2.5.1.18     24092.86   892.33
5.1.99.6     24026.57   889.87
6.1.1.11     24007.61   889.17
6.1.1.21     23892.40   884.90
2.7.4.9      23885.63   884.65
1.17.7.4     23792.12   881.19
3.6.1.55     23763.49   880.13
1.2.1.39     23748.08   879.56
3.2.2.27     23695.12   877.60
1.1.1.38     23673.23   876.79
2.3.1.157    23628.76   875.14
3.5.4.25     23627.64   875.10
3.6.5.4      23603.69   874.21
1.1.1.157    23517.92   871.03
3.2.1.165    23470.93   869.29
2.5.1.19     23399.84   866.66
2.5.1.6      23393.67   866.43
1.1.1.169    23346.58   864.69
2.7.1.30     23282.75   862.32
3.5.4.4      23179.16   858.49
3.2.2.10     23092.47   855.28
1.2.5.1      23024.73   852.77
2.7.2.3      23020.20   852.60
3.1.3.25     22939.96   849.63
1.8.1.8      22862.71   846.77
3.1.1.53     22719.35   841.46
6.1.1.1      22685.58   840.21
6.3.4.19     22652.92   839.00
2.4.1.21     22621.38   837.83
1.1.1.25     22575.28   836.12
5.4.2.10     22555.98   835.41
2.6.1.11     22548.27   835.12
6.3.2.8      22531.93   834.52
4.1.1.31     22467.96   832.15
6.3.2.17     22375.52   828.72
1.1.1.40     22370.89   828.55
2.7.8.5      22362.15   828.23
6.3.2.12     22260.37   824.46
2.5.1.7      22224.17   823.12
3.6.1.66     22115.87   819.11
2.1.1.113    22058.31   816.97
2.1.1.190    22044.78   816.47
1.15.1.1     22037.56   816.21
2.3.1.31     22022.42   815.65
3.5.1.81     22004.54   814.98
2.1.1.37     21870.56   810.02
1.2.1.12     21799.23   807.38
1.8.4.12     21732.20   804.90
2.7.7.24     21725.08   804.63
2.8.4.3      21698.67   803.65
5.3.1.1      21683.80   803.10
6.3.2.9      21618.01   800.67
2.5.1.31     21561.73   798.58
2.1.2.9      21516.65   796.91
4.1.1.98     21513.42   796.79
1.4.1.3      21495.36   796.12
2.7.10.1     21460.17   794.82
2.3.1.191    21414.99   793.15
1.1.1.65     21387.69   792.14
6.3.3.1      21371.86   791.55
2.3.1.16     21266.83   787.66
4.3.1.3      21210.85   785.59
2.7.7.12     21199.30   785.16
1.4.7.1      21149.36   783.31
2.3.1.234    21148.55   783.28
1.1.1.133    21142.40   783.05
4.2.1.75     21064.90   780.18
2.7.7.72     20952.92   776.03
3.2.1.78     20938.55   775.50
2.1.1.192    20880.80   773.36
4.4.1.16     20855.78   772.44
5.1.3.3      20754.65   768.69
6.1.1.2      20708.90   767.00
2.7.8.33     20692.49   766.39
2.7.8.35     20692.49   766.39
1.1.1.42     20689.65   766.28
3.1.6.1      20660.88   765.22
6.2.1.13     20619.49   763.68
2.3.1.29     20618.61   763.65
2.7.6.1      20587.91   762.52
2.4.1.80     20482.08   758.60
2.3.1.61     20437.31   756.94
3.2.2.23     20366.77   754.32
1.1.1.23     20298.42   751.79
1.18.1.2     20219.07   748.85
3.1.3.18     20204.67   748.32
1.19.1.1     20201.30   748.20
1.11.1.6     20160.06   746.67
4.1.99.12    20159.17   746.64
3.6.3.4      20113.52   744.95
1.2.1.70     20106.58   744.69
2.7.1.165    20103.47   744.57
2.4.1.12     20076.88   743.59
2.1.1.201    20055.64   742.80
1.1.1.193    20001.64   740.80
2.1.1.163    19995.39   740.57
4.1.1.36     19995.07   740.56
2.8.4.4      19992.32   740.46
4.2.1.47     19984.72   740.17
4.2.3.4      19957.77   739.18
2.7.7.27     19935.74   738.36
6.3.2.5      19931.15   738.19
2.5.1.10     19881.58   736.35
2.5.1.1      19881.58   736.35
2.7.1.15     19781.67   732.65
2.1.1.176    19644.47   727.57
1.4.3.16     19587.71   725.47
2.3.1.128    19541.06   723.74
2.4.1.15     19533.09   723.45
2.7.1.71     19521.21   723.01
5.4.99.15    19499.92   722.22
6.3.4.5      19382.43   717.87
3.4.13.19    19351.47   716.72
2.4.1.227    19307.20   715.08
1.1.2.6      19257.39   713.24
2.1.1.107    19256.79   713.21
1.17.7.1     19216.60   711.73
1.17.7.3     19216.60   711.73
2.1.1.10     19195.51   710.94
3.1.1.17     19178.06   710.30
4.1.1.32     19127.88   708.44
2.3.1.39     19071.85   706.36
1.5.3.1      19036.48   705.05
3.6.3.27     19031.28   704.86
2.1.1.297    18952.82   701.96
3.5.1.104    18898.80   699.96
3.5.1.16     18790.45   695.94
2.1.3.3      18764.10   694.97
2.1.1.191    18671.23   691.53
2.1.1.77     18650.37   690.75
4.2.3.5      18602.46   688.98
6.3.2.6      18524.63   686.10
5.3.1.6      18505.97   685.41
4.1.1.49     18502.82   685.29
1.4.1.2      18459.25   683.68
1.3.1.9      18457.60   683.61
1.5.5.1      18436.68   682.84
4.2.1.10     18407.54   681.76
2.7.7.9      18406.10   681.71
3.5.4.26     18390.09   681.11
2.7.4.3      18360.37   680.01
2.7.7.89     18348.35   679.57
2.7.7.42     18348.35   679.57
1.1.1.267    18335.77   679.10
2.1.3.2      18297.79   677.70
4.1.99.22    18279.63   677.02
4.1.1.105    18257.65   676.21
4.1.1.28     18257.65   676.21
2.5.1.29     18225.99   675.04
4.2.1.51     18218.07   674.74
2.7.7.2      18199.10   674.04
1.16.3.1     18142.70   671.95
2.7.1.25     18136.16   671.71
3.4.15.5     18079.29   669.60
2.4.1.347    18009.78   667.03
3.5.4.9      17985.56   666.13
1.11.1.10    17966.02   665.41
1.5.1.5      17946.67   664.69
3.2.1.31     17904.70   663.14
1.16.3.3     17896.18   662.82
3.4.23.43    17877.75   662.14
1.1.99.1     17833.54   660.50
2.4.99.17    17752.41   657.50
3.4.13.9     17734.96   656.85
1.14.19.1    17727.14   656.56
5.4.99.22    17683.62   654.95
3.6.3.29     17645.57   653.54
3.2.1.15     17630.27   652.97
2.5.1.3      17579.67   651.10
3.1.3.1      17574.15   650.89
2.8.1.13     17569.68   650.73
2.4.2.29     17551.27   650.05
4.1.3.1      17512.76   648.62
6.3.1.5      17480.13   647.41
3.4.24.40    17477.12   647.30
4.2.1.8      17429.23   645.53
2.7.8.13     17403.80   644.59
2.5.1.75     17300.44   640.76
4.3.3.6      17298.16   640.67
1.20.4.1     17280.38   640.01
2.4.99.13    17251.40   638.94
2.4.99.12    17251.40   638.94
2.4.99.14    17251.40   638.94
2.4.99.15    17251.40   638.94
2.7.1.5      17250.00   638.89
3.5.1.42     17228.51   638.09
2.7.1.26     17117.21   633.97
4.1.2.48     17087.55   632.87
1.3.1.12     17058.43   631.79
3.4.11.18    17018.28   630.31
2.3.1.54     16983.61   629.02
2.5.1.15     16960.61   628.17
1.1.1.86     16950.85   627.81
1.2.1.18     16915.55   626.50
1.2.1.27     16915.55   626.50
1.17.99.6    16907.94   626.22
1.4.1.1      16885.63   625.39
5.4.99.25    16824.34   623.12
1.1.1.37     16745.69   620.21
2.7.1.39     16678.22   617.71
3.6.3.34     16631.05   615.96
2.7.1.23     16614.55   615.35
1.2.1.38     16565.49   613.54
2.7.3.9      16485.45   610.57
1.1.1.219    16460.67   609.65
2.8.4.5      16448.16   609.19
3.4.21.50    16403.43   607.53
1.3.98.1     16387.30   606.94
1.3.1.14     16366.61   606.17
3.4.21.83    16348.73   605.51
6.6.1.1      16284.69   603.14
6.4.1.1      16263.90   602.37
4.2.1.49     16262.60   602.32
6.3.4.21     16232.92   601.22
1.11.1.21    16186.49   599.50
2.1.1.199    16129.63   597.39
4.1.1.23     16126.92   597.29
5.3.1.23     16097.42   596.20
2.4.2.10     16073.28   595.31
6.5.1.6      16048.84   594.40
6.5.1.7      16048.84   594.40
2.8.1.11     16029.98   593.70
2.3.1.241    16022.00   593.41
1.3.3.4      15995.68   592.43
1.3.3.15     15995.68   592.43
3.5.1.18     15991.96   592.29
2.7.1.4      15989.27   592.20
2.3.1.30     15939.24   590.34
1.1.3.6      15903.02   589.00
5.5.1.4      15880.17   588.15
3.1.3.48     15852.41   587.13
2.7.1.6      15830.87   586.33
2.1.1.182    15828.46   586.24
2.4.2.18     15753.01   583.44
2.8.1.8      15718.29   582.16
1.3.1.98     15716.06   582.08
2.7.4.16     15651.73   579.69
3.1.5.1      15629.47   578.87
2.1.1.137    15598.04   577.71
3.1.4.46     15572.85   576.77
2.1.2.11     15562.05   576.37
2.5.1.141    15530.57   575.21
6.1.1.18     15514.43   574.61
3.5.1.108    15503.68   574.21
2.3.2.3      15486.10   573.56
5.4.99.12    15475.57   573.17
2.3.1.35     15448.76   572.18
3.5.4.16     15413.41   570.87
3.5.2.7      15345.13   568.34
3.4.21.92    15264.10   565.34
2.9.1.1      15232.75   564.18
1.5.1.40     15225.60   563.91
4.1.99.17    15197.41   562.87
4.2.1.24     15148.08   561.04
3.4.11.5     15143.09   560.86
3.1.3.7      15126.29   560.23
4.99.1.12    14999.68   555.54
2.5.1.77     14971.21   554.49
2.7.4.25     14939.29   553.31
3.4.21.88    14922.52   552.69
2.4.1.182    14914.21   552.38
4.1.2.4      14893.91   551.63
4.4.1.11     14839.25   549.60
5.4.99.5     14801.92   548.22
5.3.1.24     14798.21   548.08
2.7.7.41     14783.90   547.55
2.7.1.33     14776.11   547.26
2.7.1.45     14773.24   547.16
2.7.1.148    14760.08   546.67
2.7.1.16     14734.72   545.73
6.3.4.15     14715.06   545.00
1.1.1.271    14704.37   544.61
2.1.2.5      14653.73   542.73
2.4.2.8      14605.78   540.95
5.3.1.4      14600.60   540.76
2.7.7.60     14563.63   539.39
3.8.1.2      14536.06   538.37
2.3.3.9      14527.85   538.07
5.3.1.28     14524.90   537.96
1.17.1.10    14520.07   537.78
4.2.1.1      14517.55   537.69
2.3.1.8      14467.37   535.83
2.1.1.185    14457.58   535.47
1.5.1.2      14447.65   535.10
2.1.1.228    14438.26   534.75
2.7.2.8      14417.10   533.97
4.1.1.44     14354.84   531.66
2.8.1.1      14294.38   529.42
2.8.1.2      14283.61   529.02
1.4.1.4      14275.57   528.72
2.6.1.22     14259.07   528.11
4.2.1.59     14248.45   527.72
3.1.13.1     14231.38   527.09
2.4.99.16    14180.39   525.20
1.13.12.16   14118.51   522.91
1.1.9.1      14111.90   522.66
2.4.2.28     14087.45   521.76
2.7.1.180    14056.31   520.60
5.1.3.13     14026.16   519.49
3.1.3.11     14022.56   519.35
4.99.1.9     13977.94   517.70
4.99.1.1     13977.94   517.70
2.5.1.61     13948.86   516.62
3.1.2.6      13939.25   516.27
1.1.1.94     13918.97   515.52
4.99.1.4     13908.96   515.15
2.7.7.87     13894.72   514.62
2.7.6.3      13802.44   511.20
2.7.4.22     13782.25   510.45
4.1.2.17     13764.91   509.81
1.2.1.32     13760.44   509.65
1.2.1.85     13760.44   509.65
2.1.1.198    13759.62   509.62
3.1.3.12     13756.37   509.50
5.1.3.1      13743.09   509.00
2.4.2.19     13741.32   508.94
1.3.1.76     13737.61   508.80
6.3.2.1      13722.45   508.24
5.1.1.7      13712.60   507.87
1.3.1.1      13644.92   505.37
1.3.1.34     13637.22   505.08
1.2.7.12     13562.13   502.30
2.5.1.90     13556.34   502.09
1.3.8.6      13551.19   501.90
6.3.4.3      13516.12   500.60
3.4.24.84    13484.97   499.44
2.4.1.109    13470.31   498.90
3.2.1.141    13427.14   497.30
3.1.26.12    13418.09   496.97
3.5.2.2      13417.58   496.95
5.3.1.5      13411.43   496.72
2.4.2.17     13396.88   496.18
2.4.2.9      13359.43   494.79
2.5.1.39     13358.70   494.77
1.1.1.69     13348.81   494.40
3.4.24.70    13335.57   493.91
2.4.1.187    13322.74   493.43
3.1.26.3     13302.82   492.70
2.1.1.64     13276.83   491.73
2.1.1.222    13272.20   491.56
2.8.3.12     13268.11   491.41
3.5.4.40     13217.40   489.53
2.6.1.85     13212.91   489.37
3.1.3.15     13190.90   488.55
1.8.7.1      13187.91   488.44
2.4.1.339    13173.39   487.90
2.4.1.340    13173.39   487.90
1.21.98.1    13170.86   487.81
1.2.3.3      13147.03   486.93
2.7.7.18     13056.76   483.58
4.3.1.4      13046.31   483.20
6.2.1.20     12994.62   481.28
3.5.1.88     12985.98   480.96
1.3.1.10     12909.57   478.13
3.1.7.2      12908.95   478.11
2.5.1.72     12881.11   477.08
1.18.6.1     12870.06   476.67
2.3.1.40     12836.72   475.43
3.5.1.25     12835.31   475.38
4.1.1.65     12800.16   474.08
4.4.1.1      12732.80   471.59
6.1.1.22     12706.89   470.63
2.8.3.5      12706.75   470.62
1.2.1.41     12645.72   468.36
5.3.1.16     12619.49   467.39
3.1.21.2     12474.65   462.02
1.8.1.2      12461.17   461.52
2.7.7.70     12443.07   460.85
3.5.2.6      12442.38   460.83
2.7.7.77     12404.01   459.41
1.7.2.5      12385.59   458.73
1.1.1.103    12381.52   458.57
3.5.3.12     12376.40   458.39
4.2.1.113    12359.49   457.76
2.7.1.167    12357.36   457.68
5.1.1.3      12322.49   456.39
2.5.1.32     12313.66   456.06
2.4.1.8      12308.79   455.88
2.5.1.99     12290.42   455.20
2.1.3.1      12271.49   454.50
3.5.1.124    12257.73   453.99
1.5.5.2      12239.75   453.32
1.2.7.7      12213.59   452.36
2.7.1.49     12202.76   451.95
2.7.4.7      12202.76   451.95
3.4.21.105   12165.30   450.57
3.6.1.13     12140.29   449.64
2.1.1.45     12134.97   449.44
1.2.99.10    12102.84   448.25
2.6.1.102    12088.59   447.73
2.1.1.170    12062.57   446.76
2.7.1.24     12037.95   445.85
4.1.1.48     12033.23   445.68
4.2.3.12     12018.11   445.12
1.17.1.8     12017.57   445.10
4.1.2.50     12016.42   445.05
3.5.3.11     11999.35   444.42
2.4.2.2      11880.32   440.01
3.5.4.13     11837.71   438.43
2.1.1.193    11826.00   438.00
1.1.2.3      11805.34   437.23
2.8.3.16     11751.05   435.22
2.7.8.8      11707.94   433.63
2.3.1.47     11698.08   433.26
1.5.99.6     11677.31   432.49
6.6.1.2      11648.77   431.44
6.4.1.4      11585.64   429.10
4.2.2.23     11561.86   428.22
3.5.2.9      11501.90   426.00
2.4.2.1      11457.64   424.36
1.97.1.9     11452.16   424.15
1.17.1.1     11448.66   424.02
5.3.1.13     11434.49   423.50
4.1.1.7      11420.69   422.99
3.2.1.135    11347.97   420.30
6.3.2.45     11344.64   420.17
3.1.26.11    11338.72   419.95
2.1.2.2      11304.87   418.70
2.3.1.129    11301.61   418.58
2.5.1.46     11276.33   417.64
4.1.3.42     11260.30   417.05
4.1.2.14     11260.30   417.05
2.7.9.3      11254.88   416.85
3.1.1.29     11251.23   416.71
2.6.1.52     11246.93   416.55
4.2.1.126    11236.37   416.16
2.1.1.250    11226.09   415.78
2.7.4.8      11219.32   415.53
2.7.1.130    11208.95   415.15
2.7.8.41     11137.17   412.49
3.6.3.16     11135.21   412.42
2.7.2.11     11061.87   409.70
3.5.4.31     11029.76   408.51
3.5.4.28     11029.76   408.51
2.8.1.6      11016.17   408.01
3.1.11.2     11007.51   407.69
2.4.1.11     10931.50   404.87
4.1.1.35     10821.64   400.80
4.1.3.34     10796.45   399.87
2.6.1.13     10764.02   398.67
4.1.99.1     10736.01   397.63
2.5.1.17     10666.73   395.06
3.1.13.3     10653.33   394.57
1.1.99.3     10542.98   390.48
3.1.4.16     10530.34   390.01
3.1.3.6      10530.34   390.01
4.2.1.19     10507.66   389.17
1.8.4.10     10494.38   388.68
1.8.4.8      10494.38   388.68
5.3.1.22     10430.93   386.33
3.6.1.45     10430.90   386.33
2.1.1.245    10374.39   384.24
2.7.7.56     10358.06   383.63
1.6.5.2      10354.72   383.51
5.4.3.2      10335.89   382.81
3.4.17.11    10323.66   382.36
2.7.7.38     10317.90   382.14
2.7.1.121    10299.58   381.47
1.14.14.5    10296.53   381.35
4.3.1.12     10291.36   381.16
2.6.1.83     10288.06   381.04
1.11.1.5     10274.17   380.52
4.1.1.45     10263.37   380.12
4.4.1.5      10257.93   379.92
2.7.1.221    10243.66   379.39
2.7.1.168    10198.80   377.73
4.6.1.12     10163.10   376.41
2.7.7.3      10152.62   376.02
1.7.5.1      10098.43   374.02
2.4.99.18    10092.24   373.79
3.1.1.11     10074.49   373.13
3.5.1.53      9992.11   370.08
3.4.13.22     9973.08   369.37
4.6.1.17      9937.69   368.06
1.4.3.4       9936.77   368.03
2.5.1.74      9876.40   365.79
1.6.1.1       9876.24   365.79
5.1.2.3       9866.85   365.44
3.5.1.6       9863.94   365.33
3.2.1.89      9850.44   364.83
2.5.1.9       9793.62   362.73
5.3.1.14      9777.68   362.14
2.5.1.55      9766.45   361.72
2.7.7.76      9766.17   361.71
6.5.1.3       9744.21   360.90
3.5.2.10      9729.32   360.35
2.3.1.181     9716.33   359.86
2.1.1.226     9680.85   358.55
2.1.1.227     9680.85   358.55
1.3.99.28     9669.30   358.12
1.3.99.31     9669.30   358.12
1.3.99.26     9669.30   358.12
1.3.99.29     9669.30   358.12
1.1.1.41      9667.67   358.06
2.8.1.12      9644.77   357.21
3.5.4.2       9611.63   355.99
2.7.4.6       9610.84   355.96
1.1.98.6      9557.07   353.97
3.4.19.5      9534.80   353.14
2.1.1.74      9487.74   351.40
3.1.4.58      9458.05   350.30
3.1.3.97      9419.76   348.88
3.1.3.10      9393.33   347.90
4.2.1.82      9385.86   347.62
4.2.1.6       9370.12   347.04
2.5.1.105     9348.87   346.25
4.2.2.2       9343.97   346.07
4.2.1.79      9322.87   345.29
4.1.1.15      9315.44   345.02
5.1.99.1      9294.68   344.25
2.6.1.55      9284.49   343.87
1.1.1.60      9222.51   341.57
2.5.1.120     9201.77   340.81
2.5.1.78      9177.77   339.92
3.1.22.4      9156.08   339.11
3.4.11.19     9103.84   337.18
3.2.1.99      9085.44   336.50
1.1.2.4       9083.28   336.42
6.2.1.48      9052.08   335.26
1.1.1.127     9032.03   334.52
1.1.1.336     9019.83   334.07
3.2.1.17      9019.40   334.05
3.4.23.36     9017.90   334.00
5.3.3.18      9009.90   333.70
3.5.4.33      8993.94   333.11
1.2.1.28      8976.95   332.48
4.2.1.45      8971.23   332.27
4.2.1.151     8950.51   331.50
6.2.1.16      8897.88   329.55
6.3.4.20      8861.62   328.21
3.2.1.139     8842.68   327.51
2.7.1.202     8838.66   327.36
4.3.99.3      8700.85   322.25
2.7.1.12      8690.93   321.89
1.7.2.1       8677.92   321.40
2.6.1.2       8647.26   320.27
2.7.1.170     8628.94   319.59
1.1.1.284     8628.54   319.58
5.1.3.4       8624.76   319.44
3.6.3.25      8616.64   319.13
3.5.3.1       8608.31   318.83
2.5.1.129     8544.44   316.46
5.1.1.20      8528.39   315.87
3.1.26.5      8515.35   315.38
5.4.99.18     8514.42   315.35
3.2.1.26      8491.30   314.49
2.4.2.7       8491.26   314.49
1.18.1.3      8482.92   314.18
3.2.1.28      8465.57   313.54
1.3.7.9       8458.85   313.29
4.2.1.22      8456.05   313.19
3.5.99.10     8420.82   311.88
2.5.1.56      8366.46   309.87
3.4.17.13     8356.99   309.52
1.1.1.26      8354.93   309.44
2.3.1.117     8348.73   309.21
1.1.1.132     8335.49   308.72
3.4.21.66     8327.46   308.42
2.7.1.48      8327.16   308.41
5.1.3.11      8312.44   307.87
2.3.1.41      8267.07   306.19
3.1.3.45      8234.01   304.96
6.2.1.17      8213.84   304.22
3.6.3.5       8200.02   303.70
3.6.3.3       8200.02   303.70
6.3.5.10      8197.21   303.60
2.6.1.44      8193.70   303.47
5.5.1.2       8191.56   303.39
1.1.1.27      8188.96   303.29
1.1.1.4       8170.91   302.63
1.1.1.303     8170.91   302.63
2.6.1.66      8169.75   302.58
2.6.1.51      8149.37   301.83
2.6.1.45      8149.37   301.83
3.1.13.5      8148.92   301.81
4.1.3.4       8146.94   301.74
3.1.1.5       8125.06   300.93
3.5.2.5       8116.99   300.63
5.3.3.17      8116.19   300.60
1.13.11.5     8090.08   299.63
3.1.3.2       8084.19   299.41
3.2.2.1       8058.74   298.47
3.2.1.91      8037.40   297.68
5.4.2.11      8036.76   297.66
1.2.7.4       8028.82   297.36
2.7.8.7       8023.30   297.16
4.1.2.27      8018.69   296.99
3.2.2.9       8008.56   296.61
3.6.3.30      8002.54   296.39
4.2.1.7       8000.79   296.33
4.1.2.52      7996.14   296.15
3.2.2.20      7995.37   296.12
2.7.7.33      7980.25   295.56
2.3.1.19      7942.79   294.18
3.5.1.19      7922.79   293.44
1.11.1.9      7908.93   292.92
4.2.1.96      7902.72   292.69
3.1.1.24      7898.03   292.52
1.4.3.19      7837.53   290.28
1.3.5.6       7809.06   289.22
1.1.3.46      7801.61   288.95
3.2.1.11      7782.03   288.22
4.1.3.38      7781.85   288.22
3.5.4.1       7775.17   287.97
3.5.4.19      7770.90   287.81
4.3.99.4      7765.13   287.60
1.7.2.2       7763.26   287.53
2.7.1.63      7759.72   287.40
3.5.99.6      7747.02   286.93
3.1.4.53      7723.54   286.06
3.2.1.156     7671.39   284.13
6.3.5.11      7667.98   284.00
6.3.5.9       7667.98   284.00
1.8.5.4       7661.02   283.74
5.4.99.9      7635.24   282.79
3.1.2.1       7622.96   282.33
4.3.1.1       7609.68   281.84
1.13.11.27    7609.37   281.83
1.1.1.369     7601.80   281.55
1.1.1.18      7601.80   281.55
3.7.1.3       7596.99   281.37
5.1.2.7       7596.36   281.35
3.1.4.55      7592.10   281.19
3.5.1.10      7571.18   280.41
2.3.1.183     7556.17   279.86
2.7.1.181     7554.47   279.80
2.1.1.294     7554.47   279.80
3.6.1.31      7497.86   277.70
3.4.24.15     7489.13   277.38
2.6.1.98      7470.57   276.69
1.1.1.91      7462.73   276.40
6.3.2.2       7440.90   275.59
2.8.1.10      7405.80   274.29
1.5.1.7       7404.56   274.24
2.6.1.62      7391.73   273.77
2.4.1.268     7382.46   273.42
2.5.1.26      7366.95   272.85
3.1.3.83      7360.62   272.62
3.1.3.82      7360.62   272.62
1.1.1.61      7344.01   272.00
3.5.4.5       7330.64   271.51
1.5.99.5      7262.42   268.98
3.1.3.100     7251.27   268.57
3.5.1.1       7245.69   268.36
1.3.3.11      7220.51   267.43
3.6.1.9       7196.64   266.54
3.4.22.40     7152.22   264.90
1.2.7.10      7150.04   264.82
2.1.1.197     7141.60   264.50
2.1.1.258     7131.64   264.13
4.1.1.52      7095.49   262.80
1.12.98.1     7066.61   261.73
1.14.13.2     7059.60   261.47
1.2.1.10      7044.24   260.90
2.4.1.64      7025.90   260.22
2.4.2.4       6985.95   258.74
1.7.99.1      6945.45   257.24
4.1.1.39      6904.78   255.73
2.4.1.345     6859.82   254.07
4.2.1.44      6837.21   253.23
2.7.7.53      6835.64   253.17
6.3.4.6       6824.12   252.75
6.2.1.25      6811.43   252.28
3.2.1.172     6807.78   252.14
4.1.1.17      6797.52   251.76
1.14.13.208   6781.76   251.18
3.7.1.2       6779.12   251.08
5.3.1.3       6764.82   250.55
5.3.1.25      6764.82   250.55
5.1.1.13      6754.33   250.16
3.5.1.5       6729.33   249.23
2.7.2.2       6723.16   249.01
1.1.1.262     6717.56   248.80
4.1.1.2       6709.99   248.52
1.21.98.3     6704.06   248.30
4.1.99.3      6700.79   248.18
3.5.1.105     6684.64   247.58
2.3.3.14      6678.04   247.33
4.1.3.16      6659.50   246.65
6.2.1.34      6659.13   246.63
4.2.1.18      6645.58   246.13
2.4.1.245     6645.01   246.11
2.7.8.28      6625.78   245.40
1.10.9.1      6588.70   244.03
2.3.1.79      6558.64   242.91
3.13.1.1      6552.43   242.68
1.5.8.1       6547.85   242.51
1.5.8.2       6547.85   242.51
1.3.99.12     6537.45   242.13
4.1.2.40      6528.84   241.81
1.8.5.5       6525.01   241.67
1.7.1.15      6518.70   241.43
5.1.3.25      6501.75   240.81
1.14.19.45    6468.20   239.56
1.14.19.23    6468.20   239.56
3.6.3.21      6454.23   239.05
1.1.5.5       6454.02   239.04
3.4.15.1      6429.96   238.15
5.1.3.10      6409.58   237.39
1.4.3.21      6394.03   236.82
4.1.1.46      6388.79   236.62
2.1.1.86      6385.43   236.50
1.8.5.2       6380.12   236.30
1.7.2.3       6373.72   236.06
3.5.3.9       6369.17   235.90
4.2.1.53      6353.35   235.31
3.1.3.27      6353.22   235.30
3.1.4.52      6320.04   234.08
3.6.3.55      6316.68   233.95
4.1.1.3       6301.50   233.39
2.4.1.46      6295.51   233.17
4.1.99.19     6290.99   233.00
3.5.1.87      6243.61   231.24
4.3.1.17      6235.87   230.96
6.3.2.14      6229.42   230.72
3.4.11.10     6195.71   229.47
3.1.3.73      6184.01   229.04
1.5.3.19      6181.76   228.95
1.4.3.5       6178.26   228.82
3.1.1.102     6171.49   228.57
2.1.1.177     6133.14   227.15
3.6.1.23      6110.60   226.32
3.6.3.15      6080.85   225.22
2.4.1.315     6080.83   225.22
3.2.1.136     6037.75   223.62
3.4.25.1      6011.87   222.66
2.7.1.20      6011.64   222.65
5.1.3.6       5984.53   221.65
1.14.13.127   5964.61   220.91
1.4.9.1       5957.62   220.65
6.3.1.20      5951.74   220.43
3.7.1.22      5923.86   219.40
3.4.25.2      5910.70   218.91
3.4.17.18     5910.38   218.90
1.3.7.8       5902.22   218.60
1.7.7.1       5894.22   218.30
4.4.1.2       5890.40   218.16
6.3.2.31      5882.49   217.87
6.3.2.34      5882.49   217.87
3.5.1.54      5869.82   217.40
4.1.2.25      5856.27   216.90
1.1.1.29      5846.74   216.55
6.3.4.18      5841.98   216.37
1.3.5.2       5783.88   214.22
3.1.3.64      5771.22   213.75
4.2.1.36      5714.77   211.66
5.1.3.23      5680.62   210.39
2.7.13.1      5639.90   208.89
1.1.1.36      5583.67   206.80
5.3.4.1       5559.02   205.89
1.14.13.1     5555.94   205.78
3.4.21.96     5520.16   204.45
3.2.1.35      5474.82   202.77
1.1.1.140     5467.79   202.51
3.5.1.26      5466.49   202.46
1.5.1.3       5424.12   200.89
2.1.1.144     5409.45   200.35
3.2.1.58      5394.97   199.81
1.14.14.9     5372.44   198.98
1.13.11.2     5362.14   198.60
3.4.14.4      5348.16   198.08
1.2.1.46      5331.96   197.48
3.6.1.7       5322.67   197.14
1.5.1.33      5316.59   196.91
3.5.4.12      5303.19   196.41
5.1.3.20      5299.84   196.29
4.2.2.6       5286.55   195.80
3.3.2.9       5282.70   195.66
3.4.19.1      5265.42   195.02
3.4.22.70     5252.91   194.55
4.2.1.120     5250.13   194.45
5.3.3.3       5250.13   194.45
2.3.1.46      5248.04   194.37
3.6.3.38      5240.72   194.10
2.7.1.21      5198.50   192.54
5.1.3.7       5186.26   192.08
1.5.8.4       5151.59   190.80
1.13.11.3     5129.59   189.98
3.2.1.86      5121.40   189.68
4.1.1.11      5101.41   188.94
4.2.1.83      5082.17   188.23
1.7.1.13      5081.06   188.19
1.1.1.47      5079.61   188.13
3.5.1.97      5066.69   187.66
3.2.1.80      5042.77   186.77
2.3.3.5       5031.05   186.34
3.1.6.6       4993.62   184.95
2.4.1.346     4989.93   184.81
2.1.1.33      4988.80   184.77
6.1.1.24      4983.07   184.56
4.3.1.7       4970.54   184.09
2.2.1.9       4954.12   183.49
1.1.3.9       4931.56   182.65
4.2.1.42      4921.11   182.26
1.10.3.10     4911.82   181.92
2.8.1.4       4908.79   181.81
3.8.1.5       4900.73   181.51
2.7.7.85      4878.08   180.67
5.4.99.63     4860.96   180.04
2.1.1.171     4860.10   180.00
1.3.1.101     4858.69   179.95
1.3.7.11      4858.69   179.95
6.3.2.29      4826.51   178.76
6.3.2.30      4826.51   178.76
5.4.99.28     4820.50   178.54
3.6.3.41      4791.98   177.48
3.6.1.22      4768.62   176.62
2.3.1.169     4755.17   176.12
3.1.3.23      4754.59   176.10
2.7.2.7       4730.16   175.19
3.2.1.54      4726.01   175.04
3.2.1.133     4726.01   175.04
5.4.99.13     4717.39   174.72
5.4.2.6       4716.89   174.70
4.2.2.3       4703.21   174.19
2.8.3.1       4694.29   173.86
4.1.2.44      4667.81   172.88
3.1.3.71      4657.61   172.50
2.7.1.56      4642.63   171.95
4.1.1.81      4640.14   171.86
5.4.99.29     4638.51   171.80
1.1.1.261     4623.25   171.23
3.4.21.116    4622.01   171.19
3.1.1.1       4620.93   171.15
3.1.1.83      4608.38   170.68
1.2.1.26      4599.39   170.35
5.1.3.5       4596.02   170.22
1.8.4.14      4591.04   170.04
2.6.99.2      4585.08   169.82
1.2.1.81      4568.99   169.22
1.14.99.50    4565.70   169.10
1.8.99.2      4556.81   168.77
1.2.1.68      4546.77   168.40
4.2.1.114     4546.72   168.40
5.3.3.2       4535.61   167.99
1.14.11.17    4529.11   167.74
1.14.13.22    4496.41   166.53
5.1.99.4      4496.23   166.53
3.2.1.196     4492.24   166.38
2.7.8.12      4483.22   166.05
2.3.1.82      4470.64   165.58
3.1.12.1      4457.27   165.08
1.1.1.30      4454.77   164.99
1.8.1.7       4451.60   164.87
2.4.2.53      4451.30   164.86
3.5.1.24      4449.96   164.81
1.1.1.409     4442.60   164.54
1.1.1.408     4442.60   164.54
1.14.13.40    4437.63   164.36
2.1.1.100     4436.63   164.32
2.3.1.265     4418.53   163.65
3.5.4.3       4402.91   163.07
2.3.1.201     4379.48   162.20
4.1.2.43      4369.02   161.82
1.13.11.8     4368.79   161.81
1.1.1.304     4351.04   161.15
1.1.1.76      4351.04   161.15
3.1.1.81      4347.92   161.03
2.7.8.43      4340.96   160.78
6.3.1.13      4337.26   160.64
5.4.4.2       4324.72   160.17
1.1.1.328     4313.76   159.77
4.1.3.25      4304.66   159.43
1.5.98.2      4292.94   159.00
4.1.1.86      4286.50   158.76
1.17.2.2      4286.27   158.75
2.4.1.250     4282.31   158.60
2.3.1.57      4280.93   158.55
2.1.1.148     4274.36   158.31
2.1.1.173     4270.05   158.15
2.1.1.264     4270.05   158.15
1.8.5.7       4246.26   157.27
2.5.1.44      4201.77   155.62
2.7.10.2      4197.41   155.46
3.5.1.9       4192.94   155.29
2.3.1.20      4175.95   154.66
3.4.21.62     4170.36   154.46
3.2.1.73      4159.18   154.04
4.1.1.73      4146.64   153.58
1.1.1.93      4146.64   153.58
1.1.1.83      4146.64   153.58
4.1.1.83      4137.81   153.25
4.1.3.30      4132.29   153.05
6.3.1.10      4123.80   152.73
2.6.1.33      4119.41   152.57
1.1.1.335     4115.61   152.43
2.8.3.10      4113.44   152.35
3.1.1.75      4101.90   151.92
1.3.99.23     4098.34   151.79
3.4.17.19     4094.79   151.66
2.7.7.68      4083.18   151.23
3.1.3.8       4071.94   150.81
2.5.1.30      4050.16   150.01
2.8.3.18      4007.65   148.43
4.1.3.39      3986.37   147.64
6.3.3.2       3977.97   147.33
1.3.5.3       3972.48   147.13
2.1.1.104     3959.94   146.66
1.2.1.99      3947.40   146.20
2.4.2.21      3937.34   145.83
3.2.1.97      3936.66   145.80
1.4.5.1       3929.38   145.53
1.1.1.122     3926.91   145.44
2.4.1.266     3916.95   145.07
6.2.1.26      3911.43   144.87
3.4.17.14     3886.62   143.95
5.4.2.7       3884.26   143.86
2.1.3.9       3874.44   143.50
2.8.4.1       3870.13   143.34
1.14.13.9     3858.37   142.90
3.4.11.4      3854.48   142.76
2.7.3.13      3845.62   142.43
6.2.1.44      3827.87   141.77
3.1.3.26      3823.85   141.62
3.2.1.197     3821.49   141.54
1.1.2.9       3816.08   141.34
1.1.1.281     3815.55   141.32
3.1.21.4      3808.91   141.07
3.5.1.116     3803.96   140.89
2.7.1.19      3788.59   140.32
2.4.1.281     3773.08   139.74
2.7.1.107     3757.47   139.17
2.4.1.348     3738.50   138.46
4.1.1.38      3718.68   137.73
4.2.1.115     3717.32   137.68
6.3.4.23      3695.45   136.87
1.3.99.38     3694.76   136.84
1.7.3.3       3694.63   136.84
2.3.1.182     3687.73   136.58
1.1.1.67      3681.08   136.34
3.2.1.184     3680.45   136.31
3.6.4.6       3675.10   136.11
6.1.1.23      3674.32   136.09
5.3.1.17      3669.03   135.89
2.3.1.48      3651.02   135.22
3.6.3.40      3633.26   134.57
2.3.1.168     3619.01   134.04
6.3.3.3       3615.90   133.92
1.17.99.1     3601.60   133.39
1.3.99.8      3594.82   133.14
1.14.14.1     3594.62   133.13
3.5.3.6       3587.15   132.86
3.6.3.31      3585.58   132.80
1.16.1.1      3569.80   132.21
4.2.1.84      3561.24   131.90
2.6.1.59      3553.49   131.61
5.1.3.32      3552.47   131.57
2.1.1.44      3525.56   130.58
5.1.99.8      3511.19   130.04
1.13.11.81    3511.19   130.04
5.3.1.30      3487.20   129.16
2.1.1.131     3484.98   129.07
1.14.19.49    3480.11   128.89
2.7.1.184     3476.44   128.76
3.7.1.12      3475.44   128.72
3.6.1.54      3460.31   128.16
1.1.1.57      3457.14   128.04
2.6.1.37      3451.58   127.84
6.2.1.27      3450.31   127.79
1.2.1.67      3444.71   127.58
2.7.1.175     3424.71   126.84
2.7.8.26      3424.29   126.83
3.8.1.3       3386.87   125.44
1.10.2.2      3369.83   124.81
6.3.1.1       3363.20   124.56
2.6.1.21      3361.14   124.49
3.2.1.46      3327.64   123.25
2.7.7.73      3315.36   122.79
2.3.1.247     3314.23   122.75
1.8.99.5      3305.45   122.42
3.4.17.22     3302.70   122.32
3.2.1.41      3299.25   122.19
1.1.3.41      3284.27   121.64
3.2.1.10      3280.61   121.50
1.14.19.9     3269.82   121.10
1.16.3.2      3267.75   121.03
2.7.8.6       3264.97   120.92
2.5.1.42      3259.79   120.73
1.14.18.1     3255.13   120.56
2.7.4.28      3251.11   120.41
2.7.11.33     3251.11   120.41
3.5.1.119     3249.18   120.34
1.14.15.7     3248.03   120.30
2.7.11.5      3229.05   119.59
2.4.1.342     3228.96   119.59
2.4.1.320     3225.23   119.45
2.4.1.319     3225.23   119.45
2.7.1.29      3221.69   119.32
4.6.1.15      3221.69   119.32
2.7.1.28      3221.69   119.32
2.5.1.135     3212.87   119.00
5.3.3.8       3205.98   118.74
1.3.1.31      3198.80   118.47
5.3.1.27      3181.58   117.84
2.7.1.215     3179.05   117.74
4.1.3.36      3173.31   117.53
4.4.1.15      3160.60   117.06
3.5.4.22      3154.20   116.82
5.1.3.9       3147.31   116.57
2.1.1.265     3145.58   116.50
2.7.7.71      3143.70   116.43
1.1.1.130     3143.05   116.41
3.4.24.3      3139.19   116.27
2.1.1.246     3132.44   116.02
3.1.1.3       3129.59   115.91
1.5.1.38      3123.58   115.69
2.7.7.62      3118.52   115.50
3.1.31.1      3113.72   115.32
6.3.1.19      3109.13   115.15
4.1.3.40      3106.14   115.04
5.3.2.6       3104.90   115.00
1.14.13.20    3098.94   114.78
1.2.1.87      3097.32   114.72
3.5.3.8       3095.98   114.67
2.5.1.113     3095.04   114.63
4.2.3.3       3093.54   114.58
5.1.3.26      3090.35   114.46
5.4.3.3       3083.11   114.19
4.2.1.100     3076.56   113.95
5.4.99.24     3060.53   113.35
6.2.1.32      3054.03   113.11
2.3.2.6       3030.02   112.22
2.3.2.27      3029.87   112.22
2.7.1.37      3014.15   111.64
1.6.3.4       3001.89   111.18
4.1.1.74      3000.68   111.14
1.13.11.4     2994.29   110.90
4.1.1.103     2992.94   110.85
2.3.1.189     2981.99   110.44
1.14.16.1     2981.03   110.41
6.3.2.3       2979.00   110.33
4.2.1.141     2978.60   110.32
4.1.3.17      2976.24   110.23
4.2.1.149     2974.71   110.17
2.1.1.303     2972.84   110.11
1.14.14.35    2966.16   109.86
4.2.1.68      2964.92   109.81
1.3.8.4       2958.57   109.58
1.2.1.58      2951.05   109.30
1.2.1.22      2949.89   109.26
2.6.1.82      2941.96   108.96
5.1.3.22      2938.69   108.84
5.4.99.27     2938.62   108.84
3.1.1.76      2935.87   108.74
2.7.1.50      2931.01   108.56
2.4.1.349     2880.79   106.70
4.4.1.19      2876.67   106.54
5.1.2.1       2871.24   106.34
5.4.99.19     2870.48   106.31
2.6.1.18      2867.07   106.19
2.1.1.21      2866.09   106.15
2.1.1.5       2846.55   105.43
2.1.1.220     2838.53   105.13
2.1.1.219     2838.53   105.13
2.1.1.223     2837.57   105.10
2.1.1.90      2822.59   104.54
1.18.1.1      2820.22   104.45
5.3.2.5       2811.08   104.11
3.4.21.10     2803.42   103.83
3.4.24.28     2798.35   103.64
2.3.3.10      2796.48   103.57
4.2.1.40      2778.13   102.89
1.1.1.346     2776.98   102.85
3.6.1.15      2775.25   102.79
2.4.1.280     2764.71   102.40
1.2.1.21      2758.67   102.17
1.1.1.308     2751.68   101.91
3.5.5.1       2740.22   101.49
1.14.13.149   2732.56   101.21
2.7.7.75      2720.85   100.77
2.7.1.36      2717.67   100.65
2.4.1.4       2704.68   100.17
1.12.1.5      2677.34    99.16
1.4.1.26      2654.14    98.30
1.4.1.12      2654.14    98.30
3.7.1.19      2644.15    97.93
1.8.5.3       2640.53    97.80
2.3.2.5       2632.49    97.50
2.3.1.101     2630.26    97.42
1.13.12.4     2630.06    97.41
4.1.1.79      2623.09    97.15
4.2.1.147     2616.70    96.91
2.5.1.73      2611.55    96.72
4.1.3.45      2607.26    96.57
3.4.15.6      2600.80    96.33
2.6.1.36      2586.87    95.81
2.1.1.166     2584.79    95.73
4.1.1.71      2584.72    95.73
1.13.11.1     2579.47    95.54
5.2.1.4       2579.46    95.54
3.2.1.65      2577.70    95.47
3.2.1.50      2571.41    95.24
2.7.1.72      2565.67    95.02
1.1.1.310     2563.44    94.94
4.1.1.41      2558.80    94.77
4.2.1.32      2550.61    94.47
2.8.3.19      2549.85    94.44
5.1.1.8       2549.67    94.43
2.7.6.2       2527.22    93.60
1.1.5.4       2522.89    93.44
2.2.1.8       2515.79    93.18
5.1.2.2       2497.61    92.50
1.1.1.34      2488.41    92.16
4.2.1.25      2488.06    92.15
3.2.1.202     2468.20    91.41
2.3.2.13      2462.88    91.22
3.1.3.41      2462.16    91.19
3.5.3.13      2452.02    90.82
2.6.1.97      2445.89    90.59
2.1.1.334     2443.08    90.48
2.6.1.109     2437.28    90.27
1.3.1.2       2428.25    89.94
6.4.1.5       2418.10    89.56
1.20.2.1      2417.73    89.55
1.20.9.1      2417.73    89.55
1.14.13.227   2414.17    89.41
2.1.1.17      2411.61    89.32
3.6.3.9       2403.02    89.00
4.2.1.108     2402.20    88.97
2.1.1.195     2395.22    88.71
1.13.11.11    2387.52    88.43
1.14.14.12    2382.35    88.24
2.3.1.187     2379.55    88.13
3.2.1.96      2370.96    87.81
1.15.1.2      2370.94    87.81
2.5.1.21      2361.77    87.47
1.1.1.2       2343.19    86.78
2.4.2.3       2341.62    86.73
2.4.1.336     2335.13    86.49
2.1.1.71      2329.69    86.28
1.2.1.91      2329.36    86.27
3.3.2.12      2329.36    86.27
5.3.3.7       2326.09    86.15
3.5.99.7      2324.12    86.08
2.7.1.51      2321.28    85.97
4.1.3.24      2319.46    85.91
1.3.1.74      2310.33    85.57
4.1.1.25      2308.33    85.49
2.4.2.52      2306.89    85.44
1.1.1.17      2306.75    85.44
2.4.1.212     2291.73    84.88
4.4.1.23      2287.21    84.71
4.2.2.8       2276.67    84.32
2.7.1.156     2271.74    84.14
2.7.1.52      2270.98    84.11
1.3.5.5       2267.94    84.00
3.2.2.24      2267.59    83.98
4.1.1.77      2265.72    83.92
2.7.7.58      2263.57    83.84
1.14.19.3     2262.49    83.80
6.5.1.4       2259.74    83.69
3.1.3.37      2254.19    83.49
5.1.3.15      2245.84    83.18
1.4.99.6      2241.22    83.01
3.3.2.13      2240.81    82.99
2.7.1.166     2238.94    82.92
4.1.99.2      2229.27    82.57
1.14.13.218   2225.92    82.44
4.2.1.70      2221.49    82.28
4.1.1.55      2213.74    81.99
1.6.5.8       2211.59    81.91
1.2.1.60      2210.31    81.86
2.2.1.10      2208.49    81.80
2.7.14.1      2198.85    81.44
3.13.1.6      2191.98    81.18
3.4.21.4      2191.22    81.16
3.5.3.26      2190.62    81.13
2.3.1.174     2186.53    80.98
2.1.1.207     2183.80    80.88
1.3.1.108     2173.21    80.49
1.17.99.7     2171.66    80.43
1.5.1.10      2167.67    80.28
3.2.2.4       2165.13    80.19
3.1.2.12      2165.04    80.19
2.8.3.6       2164.16    80.15
4.1.1.101     2157.72    79.92
1.14.13.236   2157.62    79.91
1.17.5.1      2157.41    79.90
3.1.2.25      2157.41    79.90
1.3.8.12      2153.78    79.77
1.6.2.4       2151.39    79.68
1.1.1.305     2145.71    79.47
2.1.2.13      2145.71    79.47
1.17.8.1      2142.10    79.34
4.99.1.3      2142.05    79.34
2.1.1.266     2135.81    79.10
3.2.1.180     2132.42    78.98
2.7.1.35      2130.87    78.92
3.6.3.7       2130.53    78.91
4.1.1.8       2130.38    78.90
3.5.1.49      2126.66    78.77
1.1.1.367     2126.18    78.75
2.3.1.245     2124.65    78.69
1.4.1.24      2116.81    78.40
1.8.5.6       2114.63    78.32
2.7.1.162     2111.41    78.20
1.1.1.290     2101.19    77.82
2.1.1.187     2098.51    77.72
1.7.1.7       2097.63    77.69
3.1.2.23      2096.18    77.64
3.2.2.28      2095.01    77.59
3.1.1.85      2093.52    77.54
3.5.3.18      2091.89    77.48
4.1.1.87      2086.60    77.28
2.1.1.132     2081.33    77.09
4.2.1.156     2075.87    76.88
2.4.2.48      2074.67    76.84
1.12.5.1      2065.34    76.49
3.4.13.21     2064.10    76.45
3.1.3.4       2063.15    76.41
3.5.1.115     2062.62    76.39
2.1.1.249     2059.91    76.29
3.2.2.8       2055.49    76.13
1.14.13.24    2051.75    75.99
2.7.1.191     2044.21    75.71
3.2.1.170     2036.11    75.41
1.1.1.312     2035.74    75.40
4.2.2.10      2033.72    75.32
4.1.1.9       2030.96    75.22
3.2.1.81      2023.10    74.93
1.3.3.3       2020.82    74.85
1.1.1.410     2017.10    74.71
3.5.1.41      2014.78    74.62
5.1.1.17      2013.98    74.59
4.1.1.97      2012.65    74.54
3.1.3.104     2009.47    74.42
2.7.1.219     2009.44    74.42
2.7.1.220     2009.44    74.42
4.2.99.20     2002.83    74.18
1.1.3.8       2001.65    74.14
5.2.1.13      1997.87    74.00
2.7.8.39      1986.14    73.56
2.7.1.214     1985.05    73.52
6.1.1.27      1983.13    73.45
5.4.99.20     1979.30    73.31
3.4.21.101    1978.47    73.28
1.8.2.2       1973.29    73.08
3.1.3.81      1972.68    73.06
5.5.1.1       1966.88    72.85
5.4.99.61     1966.60    72.84
5.4.99.60     1966.60    72.84
2.4.2.54      1961.76    72.66
2.7.1.60      1960.43    72.61
2.7.1.188     1959.20    72.56
2.5.1.68      1959.09    72.56
2.3.3.15      1955.60    72.43
1.5.99.4      1955.21    72.42
5.3.1.35      1947.21    72.12
1.1.1.350     1937.62    71.76
1.1.1.28      1936.73    71.73
2.7.1.53      1932.18    71.56
1.14.12.17    1930.63    71.50
3.6.1.3       1926.18    71.34
2.5.1.103     1925.37    71.31
1.1.1.53      1916.12    70.97
2.1.1.130     1907.82    70.66
2.1.1.210     1906.57    70.61
6.3.4.22      1904.91    70.55
2.1.1.341     1903.59    70.50
3.4.11.14     1886.43    69.87
5.3.1.15      1885.92    69.85
5.4.99.21     1885.26    69.82
2.3.1.37      1878.49    69.57
1.14.15.14    1877.77    69.55
2.4.1.289     1875.43    69.46
3.4.14.13     1860.65    68.91
2.7.1.144     1857.07    68.78
3.6.3.20      1854.68    68.69
1.14.12.1     1853.77    68.66
2.1.1.34      1848.64    68.47
1.1.1.401     1848.04    68.45
1.17.2.1      1846.96    68.41
3.5.2.17      1842.87    68.25
4.3.1.27      1824.95    67.59
4.2.1.76      1819.90    67.40
2.3.1.81      1809.04    67.00
2.7.1.92      1808.80    66.99
1.13.11.37    1805.36    66.87
3.5.1.3       1796.10    66.52
4.2.1.80      1795.70    66.51
1.14.13.107   1795.07    66.48
3.5.4.39      1792.29    66.38
1.1.1.90      1791.73    66.36
2.1.1.172     1789.93    66.29
5.4.99.7      1784.92    66.11
2.1.1.133     1784.14    66.08
2.1.1.271     1784.14    66.08
3.4.22.15     1771.55    65.61
1.14.13.7     1764.79    65.36
3.5.1.118     1762.26    65.27
3.1.21.7      1760.32    65.20
4.1.2.20      1756.40    65.05
3.5.1.56      1745.41    64.64
1.1.99.31     1743.98    64.59
3.5.99.2      1741.62    64.50
3.1.1.15      1739.36    64.42
2.1.1.215     1738.69    64.40
2.1.1.216     1738.69    64.40
1.13.11.20    1736.69    64.32
6.2.1.9       1725.94    63.92
1.3.1.43      1724.40    63.87
4.1.1.4       1721.70    63.77
4.1.1.61      1720.51    63.72
2.8.3.8       1718.50    63.65
2.4.1.7       1717.45    63.61
3.4.11.6      1713.21    63.45
6.2.1.42      1704.55    63.13
1.14.14.47    1703.30    63.09
6.3.2.43      1697.49    62.87
4.2.1.164     1694.79    62.77
1.4.1.21      1692.75    62.69
3.2.1.123     1691.15    62.64
1.3.99.4      1689.52    62.57
1.1.1.79      1687.45    62.50
3.5.1.68      1681.12    62.26
4.1.1.18      1674.40    62.01
4.2.1.81      1674.15    62.01
3.4.23.51     1671.70    61.91
1.7.7.2       1671.25    61.90
4.2.1.118     1660.35    61.49
2.7.1.213     1659.48    61.46
3.2.1.113     1655.60    61.32
5.1.1.4       1638.62    60.69
2.7.1.1       1637.77    60.66
1.2.1.9       1631.17    60.41
3.5.1.110     1628.44    60.31
2.6.1.111     1623.02    60.11
3.6.1.57      1621.47    60.05
1.1.1.339     1620.96    60.04
3.7.1.18      1619.49    59.98
3.2.1.157     1616.68    59.88
2.7.8.20      1609.24    59.60
1.3.1.83      1607.73    59.55
1.3.1.111     1607.73    59.55
6.4.1.8       1606.08    59.48
1.1.1.411     1604.91    59.44
4.1.1.50      1604.70    59.43
4.6.1.16      1601.43    59.31
6.3.3.7       1599.57    59.24
5.3.99.11     1598.56    59.21
1.17.1.5      1591.52    58.95
3.1.1.57      1590.10    58.89
1.3.1.85      1589.30    58.86
3.5.4.27      1587.82    58.81
2.8.3.9       1586.71    58.77
2.6.1.88      1583.58    58.65
3.1.2.21      1579.26    58.49
3.1.27.1      1578.77    58.47
2.3.1.118     1578.04    58.45
1.3.7.1       1573.86    58.29
3.4.19.12     1573.30    58.27
4.3.1.18      1572.53    58.24
3.1.2.29      1568.75    58.10
2.7.1.73      1567.17    58.04
2.7.7.83      1565.47    57.98
2.1.1.151     1564.61    57.95
1.5.1.39      1560.64    57.80
1.1.1.87      1550.64    57.43
1.14.13.83    1549.15    57.38
2.6.1.112     1547.43    57.31
5.1.3.8       1544.80    57.21
2.3.2.29      1543.72    57.17
1.14.13.235   1543.00    57.15
3.1.1.41      1541.80    57.10
2.7.7.99      1540.81    57.07
5.4.99.58     1539.28    57.01
1.3.1.86      1535.25    56.86
1.2.1.5       1531.51    56.72
5.3.3.10      1530.90    56.70
1.2.1.59      1527.84    56.59
2.1.1.213     1523.17    56.41
1.13.11.79    1522.44    56.39
4.2.2.1       1519.44    56.28
6.4.1.9       1518.72    56.25
1.1.1.381     1516.98    56.18
2.1.1.200     1513.37    56.05
4.1.1.96      1511.45    55.98
2.5.1.131     1507.06    55.82
4.2.3.156     1506.41    55.79
5.2.1.1       1503.08    55.67
5.1.3.37      1502.60    55.65
1.14.19.2     1498.00    55.48
2.6.1.77      1493.57    55.32
1.14.19.11    1492.86    55.29
1.14.19.26    1492.86    55.29
5.4.99.1      1491.30    55.23
2.8.3.15      1487.68    55.10
1.2.1.24      1486.28    55.05
1.13.11.6     1482.82    54.92
3.1.1.96      1481.99    54.89
2.6.1.96      1481.10    54.86
1.1.1.175     1477.76    54.73
2.8.2.22      1473.35    54.57
4.2.1.55      1469.81    54.44
1.5.3.22      1461.67    54.14
1.2.1.4       1461.17    54.12
4.1.3.32      1459.56    54.06
2.3.2.10      1459.15    54.04
2.5.1.108     1458.18    54.01
1.4.3.3       1456.50    53.94
2.1.1.242     1454.96    53.89
1.14.13.238   1450.21    53.71
3.4.21.111    1446.71    53.58
3.1.4.17      1445.85    53.55
4.2.1.104     1441.72    53.40
2.7.7.43      1438.51    53.28
2.3.1.233     1436.73    53.21
3.5.3.4       1433.75    53.10
1.1.1.81      1433.64    53.10
3.7.1.21      1432.72    53.06
1.1.1.333     1432.12    53.04
1.14.11.33    1431.69    53.03
1.1.98.3      1412.43    52.31
2.4.1.230     1408.50    52.17
2.7.7.1       1406.87    52.11
5.2.1.2       1404.42    52.02
5.1.3.30      1401.93    51.92
5.1.3.31      1401.93    51.92
1.3.1.32      1401.59    51.91
1.3.1.71      1401.02    51.89
6.1.3.1       1393.36    51.61
4.2.1.12      1392.20    51.56
1.1.5.12      1389.78    51.47
2.4.1.10      1388.87    51.44
5.4.99.62     1380.34    51.12
2.4.2.45      1379.12    51.08
1.3.7.14      1375.69    50.95
1.3.7.15      1375.69    50.95
1.1.1.302     1374.88    50.92
2.7.1.218     1372.26    50.82
2.5.1.76      1370.64    50.76
3.11.1.1      1368.07    50.67
1.2.1.54      1367.84    50.66
6.3.5.12      1367.74    50.66
1.1.1.380     1362.50    50.46
1.12.2.1      1356.66    50.25
1.1.1.368     1351.22    50.05
4.2.2.5       1347.62    49.91
3.6.3.32      1345.15    49.82
6.3.1.14      1339.74    49.62
3.1.2.20      1338.83    49.59
1.6.99.1      1330.82    49.29
2.6.1.76      1324.67    49.06
2.4.1.264     1324.60    49.06
2.4.1.87      1310.85    48.55
3.1.3.93      1309.28    48.49
1.1.1.159     1306.66    48.39
2.4.2.43      1304.57    48.32
3.5.5.7       1302.66    48.25
1.1.1.108     1301.88    48.22
3.5.3.3       1299.97    48.15
1.3.1.21      1299.85    48.14
2.5.1.89      1289.01    47.74
4.1.1.68      1289.01    47.74
1.21.4.2      1288.94    47.74
4.1.3.44      1288.54    47.72
1.5.98.3      1286.07    47.63
3.5.2.18      1284.34    47.57
2.1.1.35      1283.67    47.54
1.1.1.371     1283.56    47.54
4.1.99.11     1282.27    47.49
3.1.3.102     1282.10    47.49
4.2.1.103     1276.72    47.29
5.3.3.14      1272.40    47.13
3.4.24.25     1271.13    47.08
1.1.1.306     1271.05    47.08
2.3.2.16      1267.11    46.93
5.4.1.3       1265.13    46.86
3.5.4.44      1263.05    46.78
6.2.1.14      1262.42    46.76
4.1.2.19      1260.21    46.67
3.1.6.14      1256.03    46.52
1.1.1.58      1253.59    46.43
3.2.1.82      1248.37    46.24
4.4.1.24      1244.99    46.11
2.6.1.57      1240.53    45.95
3.5.1.84      1240.03    45.93
6.4.1.6       1239.97    45.92
2.7.8.15      1229.42    45.53
1.13.11.16    1225.57    45.39
5.3.3.1       1225.15    45.38
4.3.1.15      1220.03    45.19
2.1.1.298     1218.12    45.12
1.13.11.25    1217.68    45.10
1.1.99.2      1217.66    45.10
5.3.2.8       1217.49    45.09
4.2.3.153     1208.83    44.77
3.5.1.2       1207.29    44.71
1.3.99.32     1203.77    44.58
1.13.99.1     1202.61    44.54
2.7.1.100     1200.04    44.45
4.2.1.90      1193.09    44.19
1.4.1.9       1187.36    43.98
3.2.2.26      1180.85    43.74
2.7.4.26      1180.52    43.72
4.3.1.23      1180.07    43.71
1.12.7.2      1175.65    43.54
2.7.1.76      1175.22    43.53
6.2.1.31      1171.19    43.38
4.1.2.21      1165.82    43.18
2.8.2.1       1161.62    43.02
4.2.1.148     1159.51    42.94
1.13.11.57    1158.42    42.90
1.3.1.22      1154.57    42.76
1.4.1.11      1150.21    42.60
1.1.1.203     1149.76    42.58
5.4.2.9       1149.57    42.58
1.1.1.202     1149.40    42.57
1.14.13.141   1148.89    42.55
2.7.7.67      1140.12    42.23
1.4.1.23      1137.30    42.12
2.7.1.161     1137.25    42.12
4.1.1.33      1128.62    41.80
1.1.1.88      1127.82    41.77
3.6.3.44      1126.29    41.71
1.14.11.1     1126.15    41.71
1.2.99.7      1124.22    41.64
1.1.1.77      1124.18    41.64
4.4.1.32      1118.74    41.43
1.1.1.374     1118.53    41.43
1.1.1.264     1114.65    41.28
2.7.8.37      1111.40    41.16
2.3.1.246     1107.00    41.00
1.14.99.57    1106.53    40.98
2.1.3.6       1105.37    40.94
6.3.4.24      1104.86    40.92
4.2.3.130     1103.98    40.89
2.7.1.169     1099.62    40.73
6.3.2.32      1099.46    40.72
4.2.1.153     1096.27    40.60
2.1.1.317     1096.00    40.59
4.6.1.2       1095.20    40.56
2.7.8.40      1092.72    40.47
1.1.1.370     1091.82    40.44
3.7.1.5       1089.42    40.35
3.5.3.17      1084.70    40.17
2.7.4.31      1082.42    40.09
1.3.8.8       1079.89    40.00
3.7.1.20      1076.31    39.86
2.5.1.88      1073.15    39.75
2.5.1.86      1073.15    39.75
4.1.99.14     1072.52    39.72
1.1.99.28     1069.35    39.61
2.3.1.235     1067.33    39.53
2.7.1.217     1062.11    39.34
2.7.1.74      1061.61    39.32
1.1.3.47      1060.18    39.27
1.3.1.104     1059.58    39.24
3.6.1.26      1054.85    39.07
3.2.1.183     1051.94    38.96
2.3.2.26      1050.55    38.91
3.4.22.37     1045.73    38.73
3.11.1.2      1044.93    38.70
2.1.1.98      1040.56    38.54
1.5.98.1      1038.53    38.46
1.1.1.6       1036.61    38.39
5.1.3.29      1030.26    38.16
2.7.1.66      1024.07    37.93
3.6.1.67      1019.71    37.77
1.3.1.45      1018.79    37.73
3.5.1.101     1014.60    37.58
2.5.1.41      1010.60    37.43
4.2.1.135     1005.44    37.24
3.5.1.103     1000.47    37.05
2.5.1.114      998.10    36.97
4.2.2.21       997.84    36.96
4.2.2.20       997.84    36.96
2.4.1.333      995.32    36.86
2.6.1.104      991.76    36.73
1.14.13.229    990.88    36.70
1.14.19.48     990.88    36.70
1.1.1.316      990.69    36.69
3.1.3.85       987.16    36.56
2.4.2.47       986.59    36.54
4.1.1.64       986.37    36.53
1.8.3.1        985.79    36.51
1.17.1.11      984.29    36.46
4.2.1.57       980.90    36.33
5.5.1.27       979.09    36.26
6.2.1.41       976.53    36.17
1.1.1.9        974.70    36.10
2.5.1.97       965.31    35.75
3.6.3.28       964.43    35.72
3.2.1.93       957.64    35.47
2.4.1.14       956.38    35.42
2.1.3.11       955.27    35.38
3.5.4.32       952.64    35.28
2.7.8.11       948.20    35.12
3.1.4.57       947.05    35.08
1.3.3.6        945.17    35.01
2.7.1.189      936.02    34.67
2.1.1.11       933.30    34.57
3.1.2.30       932.13    34.52
4.1.1.70       927.99    34.37
1.3.4.1        925.04    34.26
5.3.1.32       922.20    34.16
1.5.1.28       920.19    34.08
2.4.1.208      916.26    33.94
2.7.7.40       915.52    33.91
4.2.1.116      913.51    33.83
4.4.1.22       909.19    33.67
1.3.98.3       905.87    33.55
6.2.1.36       899.24    33.31
1.3.1.84       899.24    33.31
2.7.7.47       896.92    33.22
2.1.1.41       895.75    33.18
3.4.14.10      894.62    33.13
4.6.1.13       893.58    33.10
2.2.1.11       892.74    33.06
2.3.1.209      891.41    33.02
4.2.1.41       891.22    33.01
1.1.1.173      882.32    32.68
1.1.1.378      882.32    32.68
1.1.1.377      882.32    32.68
1.14.12.7      877.48    32.50
2.3.1.253      874.55    32.39
2.4.1.337      874.38    32.38
1.3.3.5        872.56    32.32
3.1.1.8        861.78    31.92
2.4.1.279      860.27    31.86
3.6.1.41       859.85    31.85
2.7.1.160      858.42    31.79
3.4.24.37      855.36    31.68
3.1.27.6       853.12    31.60
1.3.1.28       852.27    31.57
1.3.8.10       852.25    31.56
6.3.2.36       850.32    31.49
2.4.2.22       848.36    31.42
2.7.8.34       847.58    31.39
2.4.1.173      845.80    31.33
2.4.2.57       845.42    31.31
2.1.1.184      843.42    31.24
1.13.11.82     834.49    30.91
1.6.3.3        831.49    30.80
1.12.1.4       827.80    30.66
2.5.1.66       824.14    30.52
4.1.2.53       822.82    30.47
1.5.99.15      819.73    30.36
2.6.1.113      816.17    30.23
3.4.11.21      814.86    30.18
2.5.1.101      814.45    30.16
1.14.12.19     814.35    30.16
2.1.1.43       814.08    30.15
2.4.1.16       813.20    30.12
2.1.1.206      812.72    30.10
3.4.14.11      811.69    30.06
2.3.3.8        804.59    29.80
4.2.1.5        803.52    29.76
2.7.1.89       802.97    29.74
4.1.1.5        802.19    29.71
3.1.1.4        802.10    29.71
3.4.19.3       801.91    29.70
2.7.1.58       799.90    29.63
1.14.13.84     799.35    29.61
3.1.1.72       794.26    29.42
1.14.13.114    788.97    29.22
1.13.11.46     788.13    29.19
3.6.1.63       785.56    29.09
3.2.1.199      781.88    28.96
1.3.8.11       780.04    28.89
1.13.11.75     779.65    28.88
2.6.1.87       775.08    28.71
2.4.1.226      773.34    28.64
2.4.1.175      773.34    28.64
1.14.14.3      771.36    28.57
4.4.1.36       768.73    28.47
1.8.2.3        766.76    28.40
2.3.1.260      765.75    28.36
3.6.3.1        761.51    28.20
5.1.3.33       760.09    28.15
2.1.1.319      752.84    27.88
3.4.11.24      749.50    27.76
3.7.1.9        747.63    27.69
1.14.11.18     746.75    27.66
4.2.2.7        745.53    27.61
1.1.1.342      745.52    27.61
1.14.11.27     744.10    27.56
5.4.4.1        740.79    27.44
3.1.11.1       738.49    27.35
4.4.1.25       737.77    27.32
1.2.1.19       737.14    27.30
2.6.1.30       737.13    27.30
1.14.12.10     735.25    27.23
2.1.1.61       732.01    27.11
1.14.14.27     731.00    27.07
2.7.1.59       728.13    26.97
2.3.1.28       723.66    26.80
1.1.1.385      722.06    26.74
1.1.1.405      721.51    26.72
1.14.13.10     721.49    26.72
1.3.1.106      715.72    26.51
1.3.1.54       715.72    26.51
4.3.1.24       715.47    26.50
3.5.1.78       714.51    26.46
6.3.1.8        714.51    26.46
5.3.3.19       714.19    26.45
1.14.12.25     712.50    26.39
1.3.99.27      711.81    26.36
2.1.1.288      706.23    26.16
1.3.7.13       705.41    26.13
2.1.1.295      704.41    26.09
1.8.98.1       703.74    26.06
4.1.1.75       703.07    26.04
4.1.1.21       699.90    25.92
2.1.1.156      699.42    25.90
1.4.9.2        697.99    25.85
1.14.11.55     697.07    25.82
4.1.1.51       696.97    25.81
1.1.5.8        696.38    25.79
3.5.99.5       696.20    25.79
1.1.98.2       695.80    25.77
2.7.7.74       694.89    25.74
1.5.99.14      690.78    25.58
2.1.3.7        690.26    25.57
4.2.1.91       690.19    25.56
1.14.99.46     687.46    25.46
4.1.1.104      686.79    25.44
4.1.1.12       683.48    25.31
2.7.7.66       682.81    25.29
3.7.1.13       681.77    25.25
5.5.1.19       681.45    25.24
2.6.1.103      680.54    25.21
2.3.1.178      680.48    25.20
3.5.1.90       677.43    25.09
2.5.1.128      676.72    25.06
3.2.1.178      675.56    25.02
1.1.1.412      675.32    25.01
1.1.1.292      675.07    25.00
3.5.2.15       675.02    25.00
1.16.1.10      667.57    24.72
3.1.1.32       666.06    24.67
1.1.5.11       662.24    24.53
1.1.5.9        658.87    24.40
2.3.1.184      658.79    24.40
3.1.4.4        656.79    24.33
1.14.13.142    654.84    24.25
1.10.3.1       652.21    24.16
4.2.1.56       646.12    23.93
4.1.99.23      643.88    23.85
2.4.1.52       643.59    23.84
2.3.1.86       642.50    23.80
2.1.1.196      642.41    23.79
5.1.3.40       642.27    23.79
2.7.1.67       638.41    23.64
6.2.1.2        636.54    23.58
1.13.11.9      636.20    23.56
2.7.8.24       633.53    23.46
1.1.1.404      631.49    23.39
2.7.1.113      623.47    23.09
2.4.1.60       622.95    23.07
2.1.1.248      622.58    23.06
1.5.1.1        620.19    22.97
1.8.1.15       619.49    22.94
3.2.1.132      616.64    22.84
1.5.1.51       616.23    22.82
4.3.2.3        615.78    22.81
1.13.12.3      611.11    22.63
1.14.14.28     609.15    22.56
4.1.2.41       608.76    22.55
4.2.1.101      608.76    22.55
2.7.7.82       606.57    22.47
2.7.4.2        606.06    22.45
2.7.1.101      604.86    22.40
1.14.13.160    601.36    22.27
3.5.1.23       598.61    22.17
4.3.1.14       596.37    22.09
1.20.4.3       592.02    21.93
2.1.1.243      589.77    21.84
4.1.1.1        587.64    21.76
4.2.2.26       586.52    21.72
1.21.4.1       586.18    21.71
3.1.4.11       585.78    21.70
1.14.18.5      584.32    21.64
2.3.1.223      579.24    21.45
1.8.2.1        578.95    21.44
5.4.99.64      574.07    21.26
3.2.1.94       573.51    21.24
2.6.1.14       572.70    21.21
4.2.1.131      572.11    21.19
1.14.11.30     567.89    21.03
2.4.1.288      567.52    21.02
4.1.99.20      567.00    21.00
1.2.98.1       565.41    20.94
1.1.99.37      565.41    20.94
1.3.8.13       564.63    20.91
2.7.1.194      563.91    20.89
2.3.1.263      560.23    20.75
3.5.1.31       559.80    20.73
1.1.1.287      558.63    20.69
1.14.11.52     557.85    20.66
2.1.1.272      555.60    20.58
2.1.1.178      555.13    20.56
2.3.2.30       554.75    20.55
5.1.99.3       553.26    20.49
2.3.1.18       552.82    20.47
3.2.1.67       551.16    20.41
1.14.13.172    550.51    20.39
1.1.1.400      549.64    20.36
2.6.1.106      548.47    20.31
2.1.1.152      548.25    20.31
4.2.99.21      548.12    20.30
1.7.2.6        546.59    20.24
2.3.1.59       546.06    20.22
4.2.1.28       544.05    20.15
1.14.15.23     542.91    20.11
2.7.1.43       542.80    20.10
1.14.99.58     541.01    20.04
4.3.1.29       539.80    19.99
3.4.24.11      539.48    19.98
3.4.24.75      536.81    19.88
2.7.8.36       536.48    19.87
1.10.3.3       534.95    19.81
3.1.3.105      534.71    19.80
3.4.14.9       534.48    19.80
3.1.2.4        533.61    19.76
6.2.1.8        532.73    19.73
1.1.1.276      531.21    19.67
4.1.1.29       529.76    19.62
4.4.1.28       526.81    19.51
1.10.3.12      524.98    19.44
1.14.13.69     522.11    19.34
1.14.19.17     521.91    19.33
4.2.3.152      521.37    19.31
1.14.15.3      521.09    19.30
1.2.1.84       520.78    19.29
4.1.2.42       519.60    19.24
4.1.1.82       512.45    18.98
2.4.2.37       512.07    18.97
2.4.1.251      511.22    18.93
6.2.1.7        510.67    18.91
5.3.3.4        509.45    18.87
3.1.2.28       509.24    18.86
2.7.1.163      507.23    18.79
1.1.1.215      503.87    18.66
2.1.1.67       503.33    18.64
4.1.3.41       502.37    18.61
4.2.1.155      502.21    18.60
1.12.98.4      500.63    18.54
1.14.99.1      500.00    18.52
2.4.2.30       494.26    18.31
5.3.1.29       493.58    18.28
1.7.2.4        491.70    18.21
3.6.1.17       491.67    18.21
3.9.1.2        490.48    18.17
2.1.1.209      489.99    18.15
1.14.11.16     489.30    18.12
1.1.1.300      487.76    18.07
4.99.1.11      487.73    18.06
3.1.3.77       486.02    18.00
2.4.1.332      482.89    17.88
2.7.1.210      480.39    17.79
2.5.1.62       479.55    17.76
2.5.1.133      479.55    17.76
5.99.1.4       479.24    17.75
1.3.7.7        475.87    17.62
2.8.2.37       475.37    17.61
2.1.1.217      475.34    17.61
2.5.1.60       473.13    17.52
1.3.1.44       469.41    17.39
2.1.4.1        467.00    17.30
2.3.1.225      466.47    17.28
1.1.1.206      465.86    17.25
3.5.3.7        464.99    17.22
2.7.1.157      464.55    17.21
3.4.22.8       464.28    17.20
2.7.11.25      464.18    17.19
1.5.1.41       463.89    17.18
1.16.1.3       463.89    17.18
2.4.99.21      460.88    17.07
1.13.11.14     460.87    17.07
2.1.1.289      459.76    17.03
1.14.11.2      455.85    16.88
1.1.1.21       453.01    16.78
3.2.1.70       452.55    16.76
2.1.1.106      452.52    16.76
2.4.1.252      451.76    16.73
6.2.1.19       450.98    16.70
3.5.1.107      447.28    16.57
1.14.18.2      446.89    16.55
1.14.13.219    446.43    16.53
2.7.1.83       443.36    16.42
1.1.1.384      442.91    16.40
3.2.1.187      441.66    16.36
2.3.1.204      440.89    16.33
3.5.4.21       439.28    16.27
6.2.1.45       436.91    16.18
2.4.1.310      434.75    16.10
6.1.1.13       434.20    16.08
5.4.99.8       433.66    16.06
2.1.1.95       432.44    16.02
1.1.1.135      432.42    16.02
3.5.1.106      430.88    15.96
3.1.1.101      429.95    15.92
3.1.1.23       428.19    15.86
2.1.1.4        427.35    15.83
2.3.1.7        426.83    15.81
3.1.1.84       421.12    15.60
3.1.1.56       421.12    15.60
1.3.1.64       420.33    15.57
2.7.7.95       413.86    15.33
2.8.4.2        413.69    15.32
3.3.2.8        411.21    15.23
1.14.13.168    410.90    15.22
1.14.99.48     406.29    15.05
1.4.99.5       403.72    14.95
5.5.1.7        402.82    14.92
5.1.1.14       401.23    14.86
4.7.1.1        397.71    14.73
3.5.2.1        395.28    14.64
4.1.1.22       394.62    14.62
3.5.1.100      394.07    14.60
2.7.1.95       393.04    14.56
3.4.23.52      392.91    14.55
4.1.1.47       392.71    14.54
1.2.1.50       388.82    14.40
3.1.1.27       387.88    14.37
2.1.1.304      387.63    14.36
1.13.11.80     386.88    14.33
3.5.1.98       386.41    14.31
1.14.13.70     386.32    14.31
3.4.21.110     384.92    14.26
1.5.1.36       383.74    14.21
4.99.1.5       381.19    14.12
4.2.2.24       379.52    14.06
3.6.3.36       377.33    13.98
4.2.1.157      375.34    13.90
3.1.1.7        374.88    13.88
3.6.3.24       371.91    13.77
2.3.2.18       370.07    13.71
2.3.2.17       370.07    13.71
2.1.1.157      369.89    13.70
1.14.13.82     369.09    13.67
2.3.2.23       367.38    13.61
3.1.1.59       367.24    13.60
2.1.1.301      366.96    13.59
2.7.11.11      366.56    13.58
5.1.3.38       366.38    13.57
2.7.1.3        366.09    13.56
1.1.1.48       365.88    13.55
2.4.1.335      365.48    13.54
1.21.4.3       364.54    13.50
1.13.11.24     361.57    13.39
1.21.4.4       360.21    13.34
6.3.1.11       359.22    13.30
1.18.1.7       358.00    13.26
1.1.98.4       356.64    13.21
2.6.1.84       354.48    13.13
2.4.1.65       353.65    13.10
4.2.1.167      352.38    13.05
2.4.1.152      350.81    12.99
1.14.13.111    350.35    12.98
6.3.1.17       350.02    12.96
6.3.2.41       350.02    12.96
2.1.1.257      349.47    12.94
4.3.1.30       349.45    12.94
4.2.1.109      348.47    12.91
1.5.1.9        348.17    12.90
1.5.1.8        348.17    12.90
2.7.1.14       348.09    12.89
4.2.1.54       347.68    12.88
1.1.1.338      346.39    12.83
1.14.13.29     346.26    12.82
1.14.13.166    346.26    12.82
2.1.1.307      345.97    12.81
6.2.1.18       345.69    12.80
2.1.1.208      345.22    12.79
3.5.1.29       344.85    12.77
6.3.4.12       344.42    12.76
4.1.3.3        343.84    12.73
2.7.11.22      343.00    12.70
1.4.1.18       338.72    12.55
4.2.1.85       338.29    12.53
2.8.3.22       337.75    12.51
1.1.1.102      336.68    12.47
1.1.1.275      336.20    12.45
1.13.11.15     333.60    12.36
2.1.1.186      331.62    12.28
1.3.1.33       331.42    12.27
1.1.1.341      330.26    12.23
1.21.99.4      330.03    12.22
2.3.1.21       328.43    12.16
1.14.99.44     328.10    12.15
1.17.3.2       327.94    12.15
1.1.99.24      324.77    12.03
1.14.15.13     324.59    12.02
3.1.3.87       322.87    11.96
1.14.13.81     322.74    11.95
2.5.1.140      322.36    11.94
4.2.1.171      321.38    11.90
1.1.3.12       321.32    11.90
1.14.13.239    320.20    11.86
3.1.3.96       319.35    11.83
2.3.1.207      318.04    11.78
2.7.1.150      308.14    11.41
2.1.1.343      308.10    11.41
1.1.98.5       306.19    11.34
1.10.3.4       305.27    11.31
2.4.1.255      304.46    11.28
2.1.1.179      302.24    11.19
4.2.1.144      301.64    11.17
1.1.1.337      300.94    11.15
1.1.1.360      300.41    11.13
1.1.1.359      300.41    11.13
2.3.1.242      296.33    10.98
3.1.4.1        296.16    10.97
3.1.6.8        295.66    10.95
1.1.1.396      295.36    10.94
2.4.1.183      294.24    10.90
1.14.12.15     292.57    10.84
3.7.1.14       292.25    10.82
5.4.99.26      291.38    10.79
4.1.1.76       291.28    10.79
2.4.1.338      290.34    10.75
1.13.11.53     286.00    10.59
1.13.11.54     286.00    10.59
1.14.13.50     285.91    10.59
4.1.2.28       284.83    10.55
2.7.11.17      284.75    10.55
1.1.99.21      284.62    10.54
2.4.1.34       282.66    10.47
3.5.1.32       281.41    10.42
1.14.13.162    280.46    10.39
2.7.1.119      279.82    10.36
2.7.8.14       279.31    10.34
2.7.8.47       279.31    10.34
3.7.1.17       279.08    10.34
2.7.1.147      278.92    10.33
2.7.1.146      278.92    10.33
5.5.1.18       278.14    10.30
1.1.1.105      276.36    10.24
1.2.1.77       276.31    10.23
2.3.1.210      275.93    10.22
2.4.1.82       274.94    10.18
3.2.1.150      274.24    10.16
3.5.1.77       273.78    10.14
2.4.1.308      273.55    10.13
2.4.1.56       271.99    10.07
1.11.1.7       270.62    10.02
4.2.1.99       269.83     9.99
2.3.2.31       269.49     9.98
2.7.7.91       269.32     9.97
2.7.1.47       269.19     9.97
2.1.1.101      264.43     9.79
6.2.1.50       264.02     9.78
2.7.7.39       263.73     9.77
1.3.1.72       263.34     9.75
2.1.1.302      262.18     9.71
3.1.3.70       261.19     9.67
3.4.24.16      261.12     9.67
1.1.1.291      259.77     9.62
4.3.3.2        258.99     9.59
3.6.3.10       258.46     9.57
1.14.13.221    258.41     9.57
5.4.3.9        258.02     9.56
3.5.5.8        256.95     9.52
2.4.1.329      256.88     9.51
2.4.1.144      256.66     9.51
3.1.1.73       256.54     9.50
2.4.1.5        253.98     9.41
2.4.2.12       253.93     9.40
2.8.3.21       253.92     9.40
3.1.27.9       253.68     9.40
2.7.1.193      252.36     9.35
2.7.11.12      251.40     9.31
3.13.1.4       249.39     9.24
1.23.1.2       249.17     9.23
1.23.1.1       249.17     9.23
1.23.1.3       249.17     9.23
1.23.1.4       249.17     9.23
2.6.1.105      247.63     9.17
1.13.11.41     246.97     9.15
2.4.1.13       246.05     9.11
3.6.4.3        245.77     9.10
3.4.16.6       243.57     9.02
1.2.1.83       243.36     9.01
2.7.1.197      243.29     9.01
1.1.1.403      242.84     8.99
3.4.22.47      242.72     8.99
2.4.1.293      241.62     8.95
3.5.1.38       241.10     8.93
1.2.3.15       239.46     8.87
1.11.1.22      239.30     8.86
3.2.1.33       238.73     8.84
3.4.21.100     238.15     8.82
2.7.1.46       237.70     8.80
3.4.22.38      236.62     8.76
1.3.99.5       236.04     8.74
1.14.14.17     235.77     8.73
5.5.1.25       233.16     8.64
2.1.1.281      233.07     8.63
3.2.1.101      232.46     8.61
2.7.12.1       231.26     8.57
3.1.4.12       229.17     8.49
1.8.1.5        228.84     8.48
2.5.1.96       227.15     8.41
1.8.3.7        226.73     8.40
2.4.2.26       224.66     8.32
2.3.1.261      224.66     8.32
3.1.3.36       222.77     8.25
3.4.24.34      222.76     8.25
3.1.3.99       222.56     8.24
1.12.98.3      221.24     8.19
1.1.1.347      221.08     8.19
1.14.13.226    220.94     8.18
2.3.1.229      220.68     8.17
2.3.1.228      220.68     8.17
1.2.1.95       220.48     8.17
5.4.4.3        220.06     8.15
3.1.13.4       219.61     8.13
4.99.1.2       219.20     8.12
5.1.1.18       219.07     8.11
2.4.1.270      218.04     8.08
3.4.24.29      217.62     8.06
4.2.1.43       216.92     8.03
2.3.1.23       216.50     8.02
6.2.1.43       216.48     8.02
6.2.1.22       216.02     8.00
1.1.1.394      215.89     8.00
5.3.3.6        215.48     7.98
1.14.99.39     215.36     7.98
1.14.18.3      215.36     7.98
2.8.1.9        214.63     7.95
2.1.1.103      214.47     7.94
2.7.1.177      214.35     7.94
3.6.5.5        213.74     7.92
4.2.3.2        213.35     7.90
2.7.7.48       212.82     7.88
4.1.2.57       212.20     7.86
3.4.24.26      211.38     7.83
4.3.1.2        210.86     7.81
2.7.7.15       210.07     7.78
2.4.1.17       209.37     7.75
4.2.1.119      207.88     7.70
2.7.8.44       206.17     7.64
5.1.99.7       204.10     7.56
3.4.21.121     204.04     7.56
1.2.1.90       203.47     7.54
1.14.13.209    201.20     7.45
2.1.1.22       199.16     7.38
2.3.1.109      198.65     7.36
1.14.15.24     198.06     7.34
1.1.1.361      197.80     7.33
6.3.1.12       197.55     7.32
3.4.24.56      197.29     7.31
5.4.3.5        197.27     7.31
1.5.3.14       196.68     7.28
1.5.3.16       196.68     7.28
2.7.7.64       196.48     7.28
3.4.24.20      195.11     7.23
1.2.7.6        194.56     7.21
2.7.7.61       193.25     7.16
1.2.99.8       192.82     7.14
3.4.22.49      191.74     7.10
3.5.3.23       191.49     7.09
6.5.1.5        189.78     7.03
3.2.1.83       189.39     7.01
2.4.1.33       189.31     7.01
2.1.1.327      189.01     7.00
2.3.1.111      188.82     6.99
5.3.1.26       188.82     6.99
1.14.11.47     185.93     6.89
1.1.1.289      185.91     6.89
3.1.30.1       185.20     6.86
1.14.12.18     184.41     6.83
3.2.1.85       183.83     6.81
1.14.13.25     183.53     6.80
1.13.11.52     183.46     6.79
4.1.3.46       182.64     6.76
1.14.12.4      182.35     6.75
2.4.2.6        181.84     6.73
3.5.1.47       181.67     6.73
2.8.1.15       181.48     6.72
2.4.1.211      181.03     6.70
1.14.19.18     180.51     6.69
2.3.1.50       179.61     6.65
1.13.11.39     178.91     6.63
2.3.1.42       178.79     6.62
5.3.1.34       178.42     6.61
2.4.1.122      178.26     6.60
6.2.1.4        177.78     6.58
2.3.1.165      177.67     6.58
3.5.1.95       176.75     6.55
1.4.3.20       176.24     6.53
2.7.11.21      176.19     6.53
2.7.1.209      175.60     6.50
1.1.3.48       174.78     6.47
3.1.1.2        174.08     6.45
3.1.8.1        174.08     6.45
4.1.99.5       173.37     6.42
2.7.7.97       172.95     6.41
2.1.1.181      172.92     6.40
1.14.13.113    172.67     6.40
1.14.13.163    172.21     6.38
1.16.9.1       170.09     6.30
2.7.1.182      169.95     6.29
1.6.2.2        168.68     6.25
2.7.1.55       168.11     6.23
2.3.1.67       167.62     6.21
2.3.1.43       167.48     6.20
1.2.1.71       167.33     6.20
4.1.2.56       166.18     6.15
1.14.13.59     165.28     6.12
3.2.1.64       164.33     6.09
2.7.11.24      163.86     6.07
3.2.1.75       162.59     6.02
2.4.1.153      162.37     6.01
2.4.1.217      161.63     5.99
2.5.1.134      161.03     5.96
3.2.1.130      160.79     5.96
1.21.99.5      160.74     5.95
3.4.21.61      160.33     5.94
1.3.1.25       160.24     5.93
3.5.1.125      160.11     5.93
2.7.1.78       159.83     5.92
3.5.1.82       159.29     5.90
1.1.1.325      159.26     5.90
1.14.11.6      159.23     5.90
2.1.1.313      159.00     5.89
3.4.24.64      158.60     5.87
3.4.24.80      157.60     5.84
3.6.1.61       157.37     5.83
2.8.3.20       155.98     5.78
1.1.1.56       155.58     5.76
1.1.1.413      155.55     5.76
2.8.2.4        155.53     5.76
1.14.13.148    154.92     5.74
2.7.1.211      154.81     5.73
4.4.1.3        153.94     5.70
2.8.3.13       153.53     5.69
3.5.1.14       153.13     5.67
3.4.14.12      152.34     5.64
1.3.1.70       151.67     5.62
3.5.1.52       151.56     5.61
4.1.1.85       151.56     5.61
2.1.1.269      151.49     5.61
1.5.3.7        151.21     5.60
2.4.1.142      150.33     5.57
3.2.1.198      150.17     5.56
1.1.1.307      148.49     5.50
1.7.1.4        148.26     5.49
3.1.1.13       147.94     5.48
1.5.1.15       147.70     5.47
2.7.11.23      146.69     5.43
1.2.1.76       146.66     5.43
4.99.1.10      146.49     5.43
1.14.13.151    146.47     5.42
3.4.21.19      145.72     5.40
2.7.1.8        144.09     5.34
3.1.6.4        143.69     5.32
1.8.3.5        143.28     5.31
1.8.3.6        143.28     5.31
3.1.1.74       142.74     5.29
1.13.11.33     141.84     5.25
3.5.2.19       141.58     5.24
1.5.99.12      140.64     5.21
3.2.1.49       139.45     5.16
2.3.1.202      138.61     5.13
1.14.12.11     137.97     5.11
1.14.12.3      137.97     5.11
2.3.1.262      137.21     5.08
1.14.14.8      136.94     5.07
2.4.1.265      136.89     5.07
4.2.1.159      136.23     5.05
2.4.1.232      135.86     5.03
6.2.1.51       135.84     5.03
2.4.1.276      135.83     5.03
1.6.3.1        134.18     4.97
1.2.1.78       133.43     4.94
1.13.11.50     133.17     4.93
1.20.1.1       132.90     4.92
4.2.1.132      132.37     4.90
3.4.24.78      131.66     4.88
1.4.1.16       131.01     4.85
2.7.1.137      130.39     4.83
3.4.21.72      130.28     4.83
6.3.2.33       130.15     4.82
2.7.12.2       129.46     4.79
2.3.1.4        129.34     4.79
1.14.13.170    128.83     4.77
1.14.13.171    128.83     4.77
2.5.1.87       128.71     4.77
5.1.1.22       128.60     4.76
2.4.1.123      127.65     4.73
1.1.1.170      127.09     4.71
1.14.14.46     127.02     4.70
2.4.1.282      126.81     4.70
1.14.19.41     126.75     4.69
1.5.1.25       126.47     4.68
6.2.1.12       126.47     4.68
1.14.13.222    125.79     4.66
2.3.1.252      125.78     4.66
3.6.1.25       125.62     4.65
2.1.1.221      125.27     4.64
1.13.11.78     124.75     4.62
2.7.1.31       123.56     4.58
1.14.11.35     123.51     4.57
3.5.1.15       122.94     4.55
2.7.1.105      122.08     4.52
1.1.1.349      122.08     4.52
2.7.4.23       121.78     4.51
3.5.4.29       121.57     4.50
2.7.9.4        121.42     4.50
3.6.1.43       121.31     4.49
2.7.8.45       120.62     4.47
1.14.13.12     120.32     4.46
2.3.1.231      120.26     4.45
2.1.1.290      120.26     4.45
1.14.13.92     120.08     4.45
2.3.1.176      119.82     4.44
2.4.1.247      119.16     4.41
3.5.1.99       118.87     4.40
3.1.3.43       118.18     4.38
3.1.11.3       118.02     4.37
5.1.3.27       117.98     4.37
2.3.1.89       117.92     4.37
5.3.1.33       117.62     4.36
1.14.13.196    116.76     4.32
1.14.13.195    116.76     4.32
2.7.7.52       116.63     4.32
3.1.3.101      116.48     4.31
1.1.99.6       114.79     4.25
3.4.24.21      114.79     4.25
1.1.3.13       114.37     4.24
3.4.22.68      114.21     4.23
1.14.99.51     113.98     4.22
2.7.11.13      113.77     4.21
3.2.1.164      113.40     4.20
4.2.1.165      113.02     4.19
1.1.1.16       111.93     4.15
3.1.4.54       111.82     4.14
2.1.1.322      110.85     4.11
2.7.1.187      110.48     4.09
2.1.1.320      109.17     4.04
2.1.1.254      109.03     4.04
3.2.2.29       108.75     4.03
1.8.1.19       108.74     4.03
2.4.1.246      108.22     4.01
2.4.1.216      107.85     3.99
3.4.17.4       107.24     3.97
1.13.11.60     107.06     3.97
5.4.4.5        107.06     3.97
5.4.4.6        107.06     3.97
2.4.1.50       106.74     3.95
2.1.3.10       106.30     3.94
1.14.11.4      106.28     3.94
2.7.1.190      106.00     3.93
4.4.1.31       105.54     3.91
2.7.8.38       104.35     3.86
4.3.1.28       104.05     3.85
2.4.1.66       103.85     3.85
4.1.3.43       103.67     3.84
2.3.1.237      101.84     3.77
2.4.1.287      101.82     3.77
3.1.4.50       101.74     3.77
3.6.4.7        101.58     3.76
1.1.99.18      101.53     3.76
3.4.23.25      101.45     3.76
3.5.4.30       101.28     3.75
3.1.1.47       100.91     3.74
1.4.3.25       100.87     3.74
3.4.21.7       100.83     3.73
2.1.1.310      100.68     3.73
1.6.5.9        100.63     3.73
2.5.1.94       100.36     3.72
2.5.1.63       100.36     3.72
3.5.4.6         99.74     3.69
1.14.11.39      99.71     3.69
6.3.2.51        99.17     3.67
3.4.23.42       98.06     3.63
3.1.6.13        97.68     3.62
3.6.1.5         97.29     3.60
2.1.1.233       96.55     3.58
5.4.99.30       96.18     3.56
1.14.13.220     95.84     3.55
1.1.99.40       95.42     3.53
2.7.1.91        95.37     3.53
2.7.1.82        94.78     3.51
3.5.1.102       94.54     3.50
1.14.14.21      94.28     3.49
3.1.22.1        94.23     3.49
3.2.1.60        93.85     3.48
2.4.1.259       93.40     3.46
2.4.1.261       93.40     3.46
2.3.1.255       93.39     3.46
1.10.3.9        93.25     3.45
3.1.27.3        92.39     3.42
1.14.19.42      92.32     3.42
3.4.23.1        91.90     3.40
1.14.13.23      91.89     3.40
2.7.1.22        91.21     3.38
2.1.1.342       91.03     3.37
2.1.1.56        90.87     3.37
3.4.23.34       90.79     3.36
2.4.1.291       90.55     3.35
2.8.3.17        90.40     3.35
1.13.11.38      90.28     3.34
1.1.1.283       89.16     3.30
1.1.1.320       88.88     3.29
2.7.9.5         88.01     3.26
3.2.2.3         87.91     3.26
3.6.1.18        86.81     3.22
1.14.99.56      86.17     3.19
2.3.1.230       86.02     3.19
2.7.8.1         85.50     3.17
2.5.1.98        85.17     3.15
3.4.24.7        84.86     3.14
2.5.1.83        84.79     3.14
3.2.1.84        84.24     3.12
2.3.1.26        84.24     3.12
2.8.3.24        84.16     3.12
3.2.1.169       83.99     3.11
2.7.1.199       83.85     3.11
3.5.3.15        83.83     3.10
1.1.1.258       83.67     3.10
1.1.2.7         83.65     3.10
2.1.1.202       83.46     3.09
1.1.1.388       83.26     3.08
2.1.1.174       82.94     3.07
2.7.1.200       82.53     3.06
1.3.1.75        82.15     3.04
2.3.1.24        81.33     3.01
3.2.1.62        81.24     3.01
3.2.1.108       81.24     3.01
2.1.1.333       81.21     3.01
1.1.1.8         80.99     3.00
3.4.23.5        80.95     3.00
1.1.1.51        80.46     2.98
1.1.1.163       79.81     2.96
3.1.3.95        79.76     2.95
2.7.8.31        79.75     2.95
1.5.1.21        79.58     2.95
4.4.1.21        79.43     2.94
5.5.1.16        79.38     2.94
3.6.3.22        78.97     2.92
1.14.11.56      78.44     2.91
1.14.11.8       78.40     2.90
2.3.1.97        77.73     2.88
2.4.1.257       77.72     2.88
2.4.1.132       77.72     2.88
3.3.2.6         77.36     2.87
1.14.19.22      77.11     2.86
1.14.19.6       77.11     2.86
3.6.1.42        77.07     2.85
4.2.1.146       76.78     2.84
1.3.1.89        76.70     2.84
1.14.17.3       76.52     2.83
2.1.1.324       76.40     2.83
2.1.1.235       76.40     2.83
2.1.1.332       75.92     2.81
2.4.1.325       75.92     2.81
6.4.1.7         75.12     2.78
2.1.1.205       75.03     2.78
4.2.1.48        74.81     2.77
2.3.1.45        74.56     2.76
2.7.1.196       74.39     2.76
2.7.1.205       74.39     2.76
3.1.7.9         73.64     2.73
3.1.7.8         73.64     2.73
3.1.7.12        73.64     2.73
1.14.13.8       73.56     2.72
3.4.23.18       72.75     2.69
1.1.3.37        72.73     2.69
3.1.3.46        72.65     2.69
3.1.1.22        72.46     2.68
1.14.14.54      72.24     2.68
1.1.1.251       72.14     2.67
2.5.1.79        72.07     2.67
2.5.1.58        72.02     2.67
1.1.1.313       71.56     2.65
2.7.1.172       71.22     2.64
2.4.1.131       71.15     2.64
1.14.99.29      70.94     2.63
3.6.1.62        70.50     2.61
1.18.1.6        70.20     2.60
1.3.1.13        70.15     2.60
1.5.1.47        70.10     2.60
1.1.1.11        69.88     2.59
1.13.11.55      69.78     2.58
1.14.19.20      69.72     2.58
3.2.1.155       68.58     2.54
1.14.11.46      68.44     2.53
2.7.4.21        68.27     2.53
3.2.1.6         68.07     2.52
3.1.3.67        68.01     2.52
1.14.13.63      67.98     2.52
2.7.11.2        67.90     2.51
3.4.24.17       67.85     2.51
3.4.16.5        67.68     2.51
1.1.1.145       66.60     2.47
1.17.4.2        66.26     2.45
2.7.7.50        65.86     2.44
2.1.1.331       65.84     2.44
1.1.1.101       65.82     2.44
4.1.2.34        65.16     2.41
2.4.1.44        65.01     2.41
1.1.3.21        64.66     2.39
3.5.1.89        64.54     2.39
2.1.1.247       64.37     2.38
2.4.1.231       63.90     2.37
3.1.6.12        63.62     2.36
2.5.1.132       63.18     2.34
1.8.1.20        63.14     2.34
1.3.1.88        63.03     2.33
2.8.2.20        62.58     2.32
2.1.1.168       62.55     2.32
5.4.99.44       62.53     2.32
2.3.1.158       62.48     2.31
2.1.1.6         61.91     2.29
5.4.2.3         61.63     2.28
2.1.1.251       61.51     2.28
3.4.23.46       61.45     2.28
2.7.7.92        61.43     2.28
3.4.11.15       61.39     2.27
2.7.1.68        61.21     2.27
3.4.21.48       61.17     2.27
5.1.3.24        61.11     2.26
2.5.1.116       60.92     2.26
2.5.1.115       60.92     2.26
2.5.1.82        60.71     2.25
1.1.1.354       60.57     2.24
1.2.1.82        60.19     2.23
1.1.1.43        59.90     2.22
2.1.1.183       59.63     2.21
4.4.1.33        59.43     2.20
3.4.11.23       59.18     2.19
2.1.1.62        59.00     2.19
1.5.3.5         58.92     2.18
1.1.1.62        58.91     2.18
5.4.4.4         58.91     2.18
4.2.1.127       58.91     2.18
6.3.4.11        58.72     2.17
6.3.4.9         58.72     2.17
6.3.4.10        58.72     2.17
1.3.99.30       58.30     2.16
2.1.1.314       58.25     2.16
2.1.1.256       58.13     2.15
2.7.1.32        57.66     2.14
1.14.13.176     57.66     2.14
3.2.1.122       57.65     2.14
2.4.1.186       57.60     2.13
2.1.1.282       57.52     2.13
2.4.1.58        56.95     2.11
4.3.2.5         56.22     2.08
1.13.12.5       56.19     2.08
2.3.1.22        56.10     2.08
2.1.1.234       56.02     2.07
1.3.3.13        55.90     2.07
2.3.1.122       55.90     2.07
1.1.1.330       55.55     2.06
3.4.24.27       55.45     2.05
5.4.3.6         55.44     2.05
1.10.3.15       55.42     2.05
1.3.1.6         55.02     2.04
2.4.1.9         54.95     2.04
6.1.2.1         54.82     2.03
3.1.3.103       54.67     2.02
1.1.1.24        54.53     2.02
1.13.11.62      54.19     2.01
2.4.1.117       54.14     2.01
2.8.2.39        53.43     1.98
5.4.99.45       53.20     1.97
2.1.1.311       53.00     1.96
3.1.1.88        52.72     1.95
3.4.24.59       52.51     1.94
2.1.1.260       52.15     1.93
1.2.1.80        52.10     1.93
5.1.1.21        51.85     1.92
1.13.11.59      51.47     1.91
1.3.1.42        51.38     1.90
2.7.11.26       51.22     1.90
3.1.3.32        51.14     1.89
1.11.2.3        50.86     1.88
2.6.1.39        50.41     1.87
2.6.1.27        50.41     1.87
2.3.1.258       50.15     1.86
1.1.3.17        50.08     1.85
3.2.1.171       50.08     1.85
2.7.1.44        49.99     1.85
2.5.1.59        49.89     1.85
2.3.1.80        49.75     1.84
2.1.1.114       49.62     1.84
1.3.99.33       49.43     1.83
3.6.1.59        49.40     1.83
2.6.1.5         49.35     1.83
1.7.1.2         49.03     1.82
1.7.1.3         49.03     1.82
1.7.1.1         49.03     1.82
6.3.3.6         48.99     1.81
2.7.4.14        48.80     1.81
6.2.1.40        48.13     1.78
2.3.1.200       47.75     1.77
3.4.21.81       47.60     1.76
2.6.1.7         47.48     1.76
1.14.14.23      47.38     1.75
1.14.14.29      47.38     1.75
1.11.2.1        47.09     1.74
1.16.8.1        46.96     1.74
1.14.18.9       46.88     1.74
1.14.11.40      46.76     1.73
2.5.1.117       46.59     1.73
4.1.99.16       45.89     1.70
4.2.3.22        45.89     1.70
4.2.3.75        45.89     1.70
2.7.1.149       45.87     1.70
3.6.1.56        45.75     1.69
1.14.18.6       45.29     1.68
2.1.1.287       45.28     1.68
1.1.1.311       45.17     1.67
2.7.2.15        44.82     1.66
1.14.11.34      44.37     1.64
1.13.12.19      44.37     1.64
2.6.1.40        44.33     1.64
6.2.1.35        44.28     1.64
2.3.1.94        44.19     1.64
2.1.1.145       44.13     1.63
2.4.1.141       44.12     1.63
5.1.3.39        44.11     1.63
4.3.1.9         43.93     1.63
6.3.2.49        43.88     1.63
5.1.3.17        43.85     1.62
1.1.1.156       43.55     1.61
3.1.3.21        43.55     1.61
3.1.3.68        43.55     1.61
1.14.13.182     43.38     1.61
4.1.2.49        43.09     1.60
4.2.1.107       42.68     1.58
5.1.1.12        42.38     1.57
1.5.3.17        42.12     1.56
3.6.1.65        41.39     1.53
3.4.21.34       41.33     1.53
3.4.21.27       41.33     1.53
3.2.1.106       41.20     1.53
2.3.1.199       40.79     1.51
3.1.1.89        40.76     1.51
5.5.1.24        40.73     1.51
2.1.1.229       40.48     1.50
1.3.99.37       40.38     1.50
2.3.1.254       40.12     1.49
1.1.1.107       39.93     1.48
2.7.1.108       39.55     1.46
2.7.1.153       39.23     1.45
1.4.3.10        39.11     1.45
2.3.2.8         38.92     1.44
2.3.1.256       38.82     1.44
2.4.2.58        37.76     1.40
2.7.4.10        37.63     1.39
3.3.2.10        37.60     1.39
3.2.1.204       37.14     1.38
2.4.1.41        37.12     1.37
2.1.1.312       37.00     1.37
4.2.3.154       36.90     1.37
1.5.1.43        36.84     1.36
3.2.1.181       36.80     1.36
2.3.2.24        36.34     1.35
4.1.1.99        36.31     1.34
1.1.1.252       34.71     1.29
2.4.1.258       34.39     1.27
4.2.1.161       34.34     1.27
1.3.1.91        34.30     1.27
1.13.11.76      34.30     1.27
1.13.11.74      34.30     1.27
1.3.1.58        34.13     1.26
2.4.1.303       33.76     1.25
1.1.1.116       33.74     1.25
2.4.1.256       33.39     1.24
2.4.1.198       33.27     1.23
2.3.1.60        33.17     1.23
5.1.1.5         33.04     1.22
2.1.1.315       32.87     1.22
2.6.1.108       32.86     1.22
2.1.1.211       32.81     1.22
3.4.21.108      32.74     1.21
3.4.19.11       32.70     1.21
3.2.1.39        32.56     1.21
2.6.1.81        32.50     1.20
2.7.1.154       32.36     1.20
2.3.1.257       32.34     1.20
2.1.1.214       32.25     1.19
4.2.1.142       31.91     1.18
4.2.1.143       31.91     1.18
1.13.12.21      31.79     1.18
4.1.2.45        31.79     1.18
2.4.1.166       31.67     1.17
1.3.2.3         31.66     1.17
4.2.1.160       31.59     1.17
1.1.1.402       31.55     1.17
1.2.1.31        31.53     1.17
2.7.1.174       31.46     1.17
2.3.1.221       31.35     1.16
1.1.99.39       31.30     1.16
4.4.1.17        31.05     1.15
3.4.24.30       30.94     1.15
2.4.1.311       30.53     1.13
2.5.1.57        30.52     1.13
3.1.3.76        30.35     1.12
1.1.1.365       30.27     1.12
5.3.99.3        30.21     1.12
2.3.1.193       30.19     1.12
1.13.11.19      30.15     1.12
3.6.3.35        30.09     1.11
2.7.1.64        30.05     1.11
3.1.3.84        30.02     1.11
3.2.1.205       29.98     1.11
2.4.2.46        29.77     1.10
2.3.1.203       29.30     1.09
3.5.5.6         29.16     1.08
1.5.1.49        28.90     1.07
2.1.1.180       28.81     1.07
1.1.1.270       28.80     1.07
3.4.11.26       28.67     1.06
3.4.17.12       28.21     1.04
1.3.1.90        27.89     1.03
6.3.2.20        27.70     1.03
2.1.1.244       27.66     1.02
3.5.3.22        27.66     1.02
3.4.19.16       27.61     1.02
2.4.1.161       27.56     1.02
1.5.1.24        27.21     1.01
1.1.1.184       27.17     1.01
1.1.1.189       27.17     1.01
1.1.1.197       27.17     1.01
2.6.1.48        27.13     1.00
1.21.99.1       27.08     1.00
4.1.1.6         27.01     1.00
2.3.1.17        26.51     0.98
2.7.1.158       26.50     0.98
3.6.1.10        26.36     0.98
2.4.1.290       26.35     0.98
3.4.21.68       26.16     0.97
1.3.1.94        25.98     0.96
2.7.1.140       25.71     0.95
2.7.1.151       25.71     0.95
2.4.2.31        25.65     0.95
1.3.1.93        25.61     0.95
2.4.1.134       25.46     0.94
3.2.1.151       25.34     0.94
2.3.1.85        25.34     0.94
2.1.1.268       25.28     0.94
3.1.1.97        24.79     0.92
4.2.1.137       24.61     0.91
5.5.1.5         24.20     0.90
1.14.14.15      23.94     0.89
4.3.99.2        23.83     0.88
1.14.15.20      23.73     0.88
3.4.24.79       23.57     0.87
2.4.1.260       23.38     0.87
3.1.1.86        23.25     0.86
3.1.2.2         23.17     0.86
6.3.2.26        23.13     0.86
5.3.99.10       22.51     0.83
3.1.3.56        22.41     0.83
5.1.3.35        22.27     0.82
2.1.1.309       22.24     0.82
2.1.1.109       21.97     0.81
4.1.1.69        21.85     0.81
2.4.1.225       21.79     0.81
2.4.1.224       21.79     0.81
1.14.13.200     21.61     0.80
4.2.1.69        21.27     0.79
2.3.1.76        21.23     0.79
2.3.1.75        21.23     0.79
1.3.1.38        21.15     0.78
1.3.8.14        20.52     0.76
5.3.2.1         20.52     0.76
1.2.3.1         20.39     0.76
5.4.1.4         20.38     0.75
4.2.1.93        20.30     0.75
2.7.8.2         20.20     0.75
2.7.8.17        19.97     0.74
3.6.1.16        19.96     0.74
3.6.1.53        19.96     0.74
3.1.11.7        19.86     0.74
3.1.11.8        19.86     0.74
3.1.12.2        19.86     0.74
3.1.3.24        19.83     0.73
2.7.11.18       19.59     0.73
1.14.18.8       19.46     0.72
1.14.13.96      19.46     0.72
1.8.3.2         19.27     0.71
1.1.1.211       19.26     0.71
3.6.1.28        19.26     0.71
3.4.11.22       19.24     0.71
4.3.2.9         19.01     0.70
1.10.3.16       19.00     0.70
3.1.3.90        18.91     0.70
2.7.1.179       18.67     0.69
2.7.1.145       18.55     0.69
4.1.2.51        18.47     0.68
1.1.1.195       18.45     0.68
3.4.22.1        18.40     0.68
2.4.1.213       18.38     0.68
3.4.19.14       18.25     0.68
1.1.1.120       18.14     0.67
1.14.99.54      18.00     0.67
3.4.22.63       17.97     0.67
3.4.22.61       17.97     0.67
3.4.22.56       17.97     0.67
3.4.22.59       17.97     0.67
3.4.22.60       17.97     0.67
3.4.22.55       17.97     0.67
3.1.2.27        17.91     0.66
1.3.8.3         17.82     0.66
3.4.22.16       17.80     0.66
1.14.13.175     17.66     0.65
3.1.2.22        17.64     0.65
1.5.4.1         17.57     0.65
3.2.1.143       17.45     0.65
1.5.1.34        17.37     0.64
1.14.11.13      17.17     0.64
2.1.1.286       16.98     0.63
2.7.1.86        16.94     0.63
1.14.11.7       16.90     0.63
3.2.1.76        16.81     0.62
1.17.5.3        16.77     0.62
3.5.4.34        16.77     0.62
2.5.1.38        16.66     0.62
2.4.1.223       16.46     0.61
1.2.1.65        16.33     0.60
4.2.1.134       16.32     0.60
2.4.1.229       15.96     0.59
1.17.98.2       15.82     0.59
1.3.1.105       15.73     0.58
1.1.1.298       15.19     0.56
1.5.7.2         15.17     0.56
2.4.1.92        15.10     0.56
3.10.1.1        14.85     0.55
4.1.2.8         14.82     0.55
2.4.1.305       14.68     0.54
2.7.1.173       14.65     0.54
1.14.13.39      14.64     0.54
3.1.4.14        14.55     0.54
3.5.1.59        14.47     0.54
3.1.1.94        14.38     0.53
4.2.1.117       14.32     0.53
4.2.3.134       14.30     0.53
2.4.1.19        14.27     0.53
4.2.1.94        14.18     0.53
2.4.1.267       14.10     0.52
4.2.1.170       14.01     0.52
2.3.1.5         13.59     0.50
3.7.1.8         13.51     0.50
1.3.1.3         13.49     0.50
2.3.2.25        13.39     0.50
1.1.1.141       13.35     0.49
2.7.7.79        13.18     0.49
2.7.8.46        13.06     0.48
3.4.24.65       13.03     0.48
3.4.16.2        12.95     0.48
2.1.1.255       12.93     0.48
2.3.1.243       12.87     0.48
4.1.1.100       12.73     0.47
1.1.1.250       12.64     0.47
1.14.18.7       12.63     0.47
6.1.1.26        12.46     0.46
2.4.1.143       12.22     0.45
3.1.1.65        12.22     0.45
2.1.1.165       12.19     0.45
6.3.4.16        11.92     0.44
2.4.1.292       11.82     0.44
3.6.1.52        11.73     0.43
3.4.24.61       11.71     0.43
2.1.1.85        11.66     0.43
2.1.1.161       11.42     0.42
2.1.1.2         11.37     0.42
3.2.1.59        11.23     0.42
2.8.2.5         11.21     0.42
3.4.22.27       11.17     0.41
1.5.99.13       11.08     0.41
1.2.1.98        11.04     0.41
3.4.21.70       11.02     0.41
3.4.21.71       11.02     0.41
3.4.21.99       11.02     0.41
3.4.21.2        11.02     0.41
4.1.2.54        11.01     0.41
3.4.24.67       11.00     0.41
3.4.24.76       10.93     0.40
4.2.1.140       10.89     0.40
2.4.1.180       10.79     0.40
2.4.1.184       10.58     0.39
4.2.3.118       10.57     0.39
5.3.99.2        10.52     0.39
1.7.1.6         10.45     0.39
1.8.7.2         10.41     0.39
1.14.21.7       10.35     0.38
1.16.1.5        10.32     0.38
1.2.1.51        10.32     0.38
3.4.11.7        10.31     0.38
5.4.99.32       10.31     0.38
3.1.3.79        10.28     0.38
5.3.3.5         10.24     0.38
1.3.1.24        10.18     0.38
1.5.1.30        10.18     0.38
1.14.11.42      10.01     0.37
1.3.1.87         9.80     0.36
5.3.1.31         9.77     0.36
3.4.23.45        9.75     0.36
2.5.1.43         9.72     0.36
2.1.1.224        9.68     0.36
2.3.1.164        9.67     0.36
1.4.3.24         9.60     0.36
3.2.1.166        9.53     0.35
1.1.1.208        9.52     0.35
3.1.3.89         9.51     0.35
1.14.13.174      9.46     0.35
1.1.1.372        9.21     0.34
2.4.2.44         9.18     0.34
1.21.3.1         8.95     0.33
1.14.13.224      8.92     0.33
3.5.5.4          8.89     0.33
4.2.1.65         8.89     0.33
1.7.1.14         8.73     0.32
2.4.1.38         8.72     0.32
2.4.1.90         8.72     0.32
2.4.1.22         8.72     0.32
1.3.1.53         8.71     0.32
1.14.12.23       8.68     0.32
1.14.12.24       8.68     0.32
1.14.12.12       8.68     0.32
1.14.13.128      8.67     0.32
1.14.17.4        8.52     0.32
1.7.3.1          8.48     0.31
4.2.1.124        8.44     0.31
5.4.99.57        8.44     0.31
5.4.99.31        8.44     0.31
5.4.99.39        8.44     0.31
5.4.99.53        8.44     0.31
5.4.99.56        8.44     0.31
5.4.99.54        8.44     0.31
5.4.99.36        8.44     0.31
5.4.99.52        8.44     0.31
1.11.1.19        8.43     0.31
1.4.3.1          8.41     0.31
2.3.1.194        8.38     0.31
2.1.1.293        8.27     0.31
3.4.17.3         8.25     0.31
3.1.2.32         8.18     0.30
2.3.1.102        8.00     0.30
6.3.2.38         8.00     0.30
1.1.1.179        8.00     0.30
2.7.1.198        7.99     0.30
1.3.1.56         7.99     0.30
3.6.1.29         7.98     0.30
2.3.1.259        7.90     0.29
1.1.1.373        7.86     0.29
2.1.1.203        7.82     0.29
1.8.1.12         7.78     0.29
2.4.1.312        7.77     0.29
3.5.1.46         7.72     0.29
1.13.12.22       7.67     0.28
1.1.1.358        7.59     0.28
1.1.1.146        7.51     0.28
3.4.21.80        7.51     0.28
1.8.98.3         7.45     0.28
2.6.1.34         7.42     0.27
1.1.1.357        7.35     0.27
2.4.1.275        7.32     0.27
3.4.18.1         6.86     0.25
3.2.1.107        6.83     0.25
3.4.22.42        6.81     0.25
1.5.8.3          6.81     0.25
1.14.13.78       6.74     0.25
2.7.8.42         6.73     0.25
2.5.1.138        6.54     0.24
1.1.1.178        6.53     0.24
1.14.11.54       6.40     0.24
2.3.1.226        6.40     0.24
6.3.2.35         6.31     0.23
1.14.16.5        6.05     0.22
3.4.21.9         5.88     0.22
4.2.2.9          5.77     0.21
3.1.25.1         5.75     0.21
1.2.1.75         5.70     0.21
1.1.1.216        5.67     0.21
1.1.1.387        5.67     0.21
3.4.14.1         5.63     0.21
3.2.2.30         5.48     0.20
2.6.1.78         5.40     0.20
2.6.1.79         5.40     0.20
3.4.23.4         5.36     0.20
1.1.1.10         5.32     0.20
1.14.13.154      5.23     0.19
2.7.7.81         5.16     0.19
1.5.1.6          5.14     0.19
2.5.1.85         5.06     0.19
2.5.1.84         5.06     0.19
1.1.1.137        5.06     0.19
1.1.1.353        5.01     0.19
2.1.1.60         4.96     0.18
4.1.1.102        4.95     0.18
1.14.99.49       4.94     0.18
1.8.1.18         4.87     0.18
2.1.4.2          4.86     0.18
1.5.1.48         4.78     0.18
2.1.1.204        4.77     0.18
2.7.1.208        4.74     0.18
2.1.1.344        4.72     0.17
6.2.1.46         4.63     0.17
3.4.24.39        4.61     0.17
3.4.21.109       4.50     0.17
1.1.1.406        4.36     0.16
2.1.1.1          4.35     0.16
3.4.22.41        4.20     0.16
2.5.1.2          4.20     0.16
3.5.1.122        4.18     0.15
3.4.21.118       4.16     0.15
3.4.21.119       4.16     0.15
3.4.21.117       4.16     0.15
3.1.26.8         4.13     0.15
5.1.3.18         4.10     0.15
1.3.1.60         4.00     0.15
1.3.1.29         4.00     0.15
3.6.1.64         3.90     0.14
4.2.1.30         3.88     0.14
1.11.1.20        3.82     0.14
3.6.1.58         3.82     0.14
1.3.1.48         3.82     0.14
3.4.24.55        3.81     0.14
4.2.1.158        3.73     0.14
2.7.7.14         3.72     0.14
2.3.1.78         3.60     0.13
2.1.1.110        3.59     0.13
1.14.13.231      3.56     0.13
1.14.11.12       3.55     0.13
1.1.1.181        3.41     0.13
1.1.3.49         3.39     0.13
1.14.14.22       3.38     0.13
2.5.1.27         3.38     0.13
2.5.1.112        3.38     0.13
3.4.17.15        3.32     0.12
2.7.3.2          3.32     0.12
2.7.3.3          3.32     0.12
5.1.3.19         3.31     0.12
1.14.19.36       3.27     0.12
1.14.19.25       3.27     0.12
1.14.19.35       3.27     0.12
3.1.4.37         3.24     0.12
1.3.1.19         3.23     0.12
3.4.21.106       3.20     0.12
1.1.1.39         3.20     0.12
3.4.21.120       3.08     0.11
2.8.2.2          3.08     0.11
2.8.2.3          3.08     0.11
1.14.14.18       3.06     0.11
4.2.1.154        3.06     0.11
2.7.1.176        3.00     0.11
1.2.1.89         2.99     0.11
4.1.2.29         2.96     0.11
1.3.8.2          2.94     0.11
3.4.22.43        2.89     0.11
1.4.1.20         2.78     0.10
3.1.4.56         2.76     0.10
3.13.1.3         2.76     0.10
1.14.13.232      2.61     0.10
1.14.13.233      2.61     0.10
2.7.4.24         2.48     0.09
1.5.1.45         2.47     0.09
1.14.15.9        2.43     0.09
1.1.1.364        2.32     0.09
1.14.12.22       2.23     0.08
3.1.21.1         2.07     0.08
6.3.2.7          2.06     0.08
2.4.1.155        1.85     0.07
1.14.14.19       1.85     0.07
1.14.14.32       1.85     0.07
1.21.1.1         1.85     0.07
2.7.1.138        1.83     0.07
3.6.1.12         1.81     0.07
1.14.14.30       1.81     0.07
4.2.2.19         1.77     0.07
3.4.17.1         1.75     0.06
2.3.1.65         1.72     0.06
4.1.2.60         1.69     0.06
1.1.1.407        1.66     0.06
3.4.21.75        1.60     0.06
1.4.3.2          1.60     0.06
2.1.1.240        1.54     0.06
2.1.1.261        1.53     0.06
3.4.21.112       1.49     0.06
2.4.1.274        1.40     0.05
3.1.3.57         1.38     0.05
2.6.1.92         1.37     0.05
2.1.1.296        1.35     0.05
2.6.1.50         1.32     0.05
3.4.22.34        1.27     0.05
1.1.1.45         1.22     0.05
1.17.99.2        1.17     0.04
2.7.11.32        1.13     0.04
2.7.4.27         1.13     0.04
1.1.1.237        1.09     0.04
4.1.1.109        1.01     0.04
1.3.1.62         1.01     0.04
3.5.1.94         0.88     0.03
3.2.1.152        0.87     0.03
4.2.3.19         0.73     0.03
6.3.3.4          0.70     0.03
1.1.1.239        0.60     0.02
1.2.1.72         0.58     0.02
1.13.11.56       0.58     0.02
2.8.2.30         0.50     0.02
3.1.6.2          0.50     0.02
3.2.1.185        0.39     0.01
1.3.1.78         0.33     0.01
3.6.1.68         0.31     0.01
6.3.2.47         0.30     0.01
4.2.3.37         0.17     0.01
3.6.3.33         0.06     0.00
3.4.13.18        0.00     0.00
1.6.5.4          0.00     0.00

# the sum counts per ID
              sum   mean
ID38_1 1192634.49 351.81
ID30_1 1157915.80 341.57
ID28_1 1114056.17 328.63
ID24_1 1044137.80 308.01
ID32_1 1043875.11 307.93
ID34_1 1040354.12 306.89
ID20_1 1038285.43 306.28
ID22_1 1030904.89 304.10
ID21_1 1028877.20 303.50
ID33_1 1018972.06 300.58
ID26_1 1012992.55 298.82
ID12_1 1012156.20 298.57
ID14_1 1011638.17 298.42
ID35_1 1001826.16 295.52
ID18_1  999847.88 294.94
ID25_1  989293.07 291.83
ID23_1  986022.88 290.86
ID27_1  976055.40 287.92
ID31_1  969581.34 286.01
ID36_1  969497.54 285.99
ID37_1  965802.32 284.90
ID29_1  942891.27 278.14
ID17_1  935091.97 275.84
ID11_1  927641.97 273.64
ID13_1  913038.17 269.33
ID15_1  909789.18 268.37
ID19_1  837187.78 246.96
